T,Magnetization,Total Energy
1.4,0.16625,-1368
1.4,0.03125,-1504
1.4,0.0275,-1256
1.4,0.06,-1476
1.4,0.0275,-1476
1.4,0.05625,-1396
1.4,0.005,-1576
1.4,0.0975,-1336
1.4,0.17375,-1524
1.4,0.0075,-1504
1.4,0.05125,-1408
1.4,0.115,-1424
1.4,0.12,-1424
1.4,0.0575,-1404
1.4,0.10875,-1584
1.4,0.08125,-1600
1.4,0.07125,-1308
1.4,0.0075,-1452
1.4,0.01375,-1388
1.4,0.05875,-1384
1.4,0.0575,-1352
1.4,0.06625,-1340
1.4,0.29875,-1548
1.4,0.0525,-1572
1.4,0.21125,-1512
1.4,0.00875,-1464
1.4,0.08125,-1452
1.4,0.07875,-1404
1.4,0.01875,-1624
1.4,0.105,-1540
1.4,0.00375,-1592
1.4,0.05,-1620
1.4,0.15875,-1612
1.4,0.12375,-1348
1.4,0.17,-1508
1.4,0.03375,-1452
1.4,0.2825,-1480
1.4,0.045,-1332
1.4,0.0825,-1436
1.4,0.07125,-1356
1.4,0.13,-1500
1.4,0.06875,-1468
1.4,0.10375,-1552
1.4,0.08125,-1340
1.4,0.11875,-1536
1.4,0.1375,-1388
1.4,0.125,-1500
1.4,0.02125,-1388
1.4,0.08375,-1500
1.4,0,-1436
1.4,0.06625,-1460
1.4,0.04375,-1392
1.4,0.04875,-1412
1.4,0.15625,-1488
1.4,0.165,-1380
1.4,0.04,-1428
1.4,0.08,-1396
1.4,0.02375,-1548
1.4,0.13875,-1488
1.4,0.0025,-1492
1.4,0.0075,-1412
1.4,0.00125,-1496
1.4,0.00875,-1344
1.4,0.07625,-1456
1.4,0.1575,-1528
1.4,0.0125,-1568
1.4,0.09,-1468
1.4,0.135,-1492
1.4,0.01375,-1436
1.4,0.06375,-1608
1.4,0.0075,-1356
1.4,0.1025,-1456
1.4,0.1375,-1412
1.4,0.11875,-1500
1.4,0.14125,-1612
1.4,0.12,-1536
1.4,0.0875,-1340
1.4,0.0225,-1528
1.4,0.06375,-1476
1.4,0.19125,-1400
1.4,0.09875,-1460
1.4,0.00875,-1460
1.4,0.0325,-1324
1.4,0.0875,-1392
1.4,0.2425,-1520
1.4,0.065,-1524
1.4,0.17125,-1608
1.4,0.125,-1388
1.4,0.005,-1472
1.4,0.03,-1376
1.4,0.08375,-1504
1.4,0.07125,-1292
1.4,0.02625,-1376
1.4,0.06875,-1300
1.4,0.17375,-1656
1.4,0.1125,-1528
1.4,0.0425,-1492
1.4,0.28,-1396
1.4,0.1475,-1448
1.4,0.12125,-1340
1.4,0.12,-1492
1.4,0.1025,-1404
1.4,0.07625,-1520
1.4,0.0175,-1352
1.4,0.01,-1384
1.4,0.06125,-1568
1.4,0.04375,-1464
1.4,0.07,-1532
1.4,0.12,-1488
1.4,0.015,-1464
1.4,0.12,-1324
1.4,0.03125,-1460
1.4,0.08,-1368
1.4,0.1275,-1352
1.4,0.09875,-1616
1.4,0.005,-1508
1.4,0.01625,-1472
1.4,0.0475,-1456
1.4,0.055,-1360
1.4,0.0125,-1412
1.4,0.06625,-1268
1.4,0.12375,-1372
1.4,0.08,-1420
1.4,0.0675,-1544
1.4,0.01625,-1512
1.4,0.12875,-1484
1.4,0.00875,-1392
1.4,0.205,-1448
1.4,0.1,-1456
1.4,0.10625,-1356
1.4,0.125,-1444
1.4,0.03,-1500
1.4,0.01875,-1524
1.4,0.1975,-1392
1.4,0.00625,-1484
1.4,0.12875,-1456
1.4,0.0025,-1448
1.4,0.09375,-1532
1.4,0.025,-1360
1.4,0.02,-1508
1.4,0.04875,-1296
1.4,0.15625,-1656
1.4,0.03,-1452
1.4,0.00375,-1316
1.4,0.05,-1416
1.4,0.09375,-1348
1.4,0.1575,-1492
1.4,0.02625,-1420
1.4,0.10875,-1476
1.4,0.0675,-1496
1.4,0.0825,-1632
1.4,0.05,-1340
1.4,0.0775,-1444
1.4,0.02875,-1316
1.4,0.1175,-1200
1.4,0.03125,-1560
1.4,0.22875,-1432
1.4,0.08375,-1472
1.4,0.26375,-1380
1.4,0.13625,-1476
1.4,0.06375,-1492
1.4,0.15,-1612
1.4,0.01625,-1520
1.4,0.12125,-1456
1.4,0.04625,-1520
1.4,0.17375,-1524
1.4,0.0525,-1484
1.4,0.04375,-1364
1.4,0.08375,-1468
1.4,0.06625,-1452
1.4,0.03625,-1524
1.4,0.08625,-1560
1.4,0.05125,-1576
1.4,0.01875,-1464
1.4,0.08625,-1484
1.4,0.04875,-1428
1.4,0.015,-1548
1.4,0.07875,-1416
1.4,0.01625,-1524
1.4,0.0725,-1368
1.4,0.085,-1480
1.4,0.115,-1352
1.4,0.06125,-1376
1.4,0.05375,-1448
1.4,0.00875,-1536
1.4,0.0025,-1404
1.4,0.2075,-1420
1.4,0.12375,-1496
1.4,0.03375,-1368
1.4,0.09125,-1528
1.4,0.13125,-1516
1.4,0.07,-1460
1.4,0.00875,-1628
1.4,0.23875,-1492
1.4,0.115,-1384
1.4,0.01875,-1428
1.4,0.15875,-1564
1.4,0.0175,-1424
1.4,0.07625,-1436
1.4,0.0575,-1452
1.4,0.07625,-1476
1.4,0.14,-1496
1.4,0.04375,-1448
1.4,0.01125,-1472
1.4,0.0425,-1368
1.4,0.0625,-1424
1.4,0.01625,-1488
1.4,0.0975,-1324
1.4,0.03125,-1312
1.4,0.02,-1416
1.4,0.01625,-1432
1.4,0.02875,-1356
1.4,0.18375,-1532
1.4,0.01625,-1456
1.4,0.01625,-1332
1.4,0.08375,-1396
1.4,0.0625,-1552
1.4,0.07,-1428
1.4,0.01875,-1392
1.4,0.08625,-1440
1.4,0.045,-1600
1.4,0.17625,-1508
1.4,0.05125,-1480
1.4,0.095,-1572
1.4,0.025,-1272
1.4,0.07625,-1416
1.4,0.15875,-1588
1.4,0.04375,-1600
1.4,0.02,-1516
1.4,0.295,-1324
1.4,0.115,-1336
1.4,0.0275,-1412
1.4,0.075,-1452
1.4,0.07625,-1488
1.4,0.13375,-1344
1.4,0.14875,-1544
1.4,0.1375,-1480
1.4,0.09875,-1344
1.4,0.0325,-1364
1.4,0.1525,-1436
1.4,0.0425,-1392
1.4,0.035,-1524
1.4,0.12375,-1356
1.4,0.0975,-1380
1.4,0.275,-1480
1.4,0.07875,-1580
1.4,0.0975,-1352
1.4,0.115,-1300
1.4,0.22375,-1392
1.4,0.0575,-1476
1.4,0.1225,-1440
1.4,0.11125,-1532
1.4,0.105,-1388
1.4,0.105,-1516
1.4,0.04625,-1416
1.4,0.145,-1468
1.4,0.075,-1488
1.4,0.0775,-1404
1.4,0.06875,-1396
1.4,0.02375,-1464
1.4,0.1275,-1580
1.4,0.32125,-1680
1.4,0.02,-1448
1.4,0.1425,-1488
1.4,0.03875,-1464
1.4,0.045,-1604
1.4,0.05125,-1388
1.4,0.21,-1428
1.4,0.03625,-1512
1.4,0.0375,-1404
1.4,0.0725,-1432
1.4,0.05875,-1412
1.4,0.12625,-1476
1.4,0.0475,-1488
1.4,0.0075,-1404
1.4,0.0875,-1436
1.4,0.01,-1420
1.4,0.0375,-1508
1.4,0.125,-1392
1.4,0.11,-1576
1.4,0.02625,-1484
1.4,0.22375,-1364
1.4,0.10125,-1392
1.4,0.03,-1452
1.4,0.045,-1408
1.4,0.07125,-1436
1.4,0.02875,-1432
1.4,0.15375,-1356
1.4,0.07875,-1420
1.4,0.19625,-1412
1.4,0.09375,-1356
1.4,0.08875,-1508
1.4,0.03625,-1460
1.4,0.05625,-1560
1.4,0.06125,-1644
1.4,0.11125,-1440
1.4,0.1075,-1388
1.4,0.10625,-1396
1.4,0.0375,-1568
1.4,0.0525,-1396
1.4,0.1725,-1476
1.4,0.0625,-1560
1.4,0.18625,-1528
1.4,0.02625,-1380
1.4,0.04875,-1268
1.4,0.055,-1584
1.4,0.04375,-1392
1.4,0.03875,-1328
1.4,0.08,-1440
1.4,0.10375,-1592
1.4,0.075,-1452
1.4,0.1175,-1428
1.4,0.00125,-1520
1.4,0.02875,-1464
1.4,0.0325,-1528
1.4,0.125,-1504
1.4,0.16625,-1340
1.4,0.14875,-1536
1.4,0.20375,-1636
1.4,0.1525,-1428
1.4,0.0275,-1432
1.4,0.1175,-1532
1.4,0.12125,-1368
1.4,0.0925,-1420
1.4,0.02625,-1608
1.4,0.00875,-1604
1.4,0.05625,-1420
1.4,0.13625,-1592
1.4,0.08625,-1420
1.4,0.2175,-1628
1.4,0.015,-1448
1.4,0.03,-1476
1.4,0.04,-1488
1.4,0.1975,-1368
1.4,0.04875,-1376
1.4,0.11625,-1332
1.4,0.08875,-1404
1.4,0.1825,-1516
1.4,0.09375,-1444
1.4,0.0175,-1240
1.4,0.05625,-1372
1.4,0.0125,-1400
1.4,0.0775,-1464
1.4,0.20125,-1336
1.4,0.095,-1516
1.4,0.02,-1408
1.4,0.1375,-1560
1.4,0.055,-1504
1.4,0.05625,-1228
1.4,0.03625,-1444
1.4,0.0675,-1384
1.4,0.13,-1516
1.4,0.01875,-1352
1.4,0.0275,-1440
1.4,0.245,-1480
1.4,0.155,-1532
1.4,0.15,-1316
1.4,0.10875,-1456
1.4,0.03375,-1368
1.4,0.0675,-1476
1.4,0.03875,-1404
1.4,0.1225,-1396
1.4,0.13875,-1580
1.4,0.175,-1616
1.4,0.13375,-1404
1.4,0.09125,-1428
1.4,0.03375,-1404
1.4,0.16125,-1468
1.4,0.2975,-1328
1.4,0.15375,-1636
1.4,0.01125,-1488
1.4,0.1325,-1516
1.4,0.04875,-1540
1.4,0.07125,-1376
1.4,0.0475,-1600
1.4,0.0225,-1440
1.4,0.30625,-1596
1.4,0.05375,-1564
1.4,0.0025,-1528
1.4,0.11125,-1368
1.4,0.035,-1448
1.4,0.095,-1392
1.4,0.1825,-1488
1.4,0.2275,-1540
1.4,0.15375,-1488
1.4,0.08,-1400
1.4,0.01875,-1556
1.4,0.05625,-1472
1.4,0.225,-1456
1.4,0.27875,-1532
1.4,0.015,-1492
1.4,0.225,-1516
1.4,0.0075,-1448
1.4,0.1975,-1460
1.4,0.13,-1396
1.4,0.05875,-1592
1.4,0.00125,-1316
1.4,0.02625,-1372
1.4,0.095,-1544
1.4,0.1375,-1500
1.4,0.0325,-1328
1.4,0.1825,-1420
1.4,0.03,-1432
1.4,0.00375,-1392
1.4,0.11,-1448
1.4,0.04,-1420
1.4,0.11625,-1524
1.4,0.02,-1568
1.4,0.1075,-1452
1.4,0.1175,-1308
1.4,0.055,-1380
1.4,0.10875,-1500
1.4,0.14,-1492
1.4,0.0825,-1464
1.4,0.01875,-1388
1.4,0.045,-1428
1.4,0.175,-1392
1.4,0.175,-1368
1.4,0.0975,-1492
1.4,0.095,-1524
1.4,0.10875,-1472
1.4,0.20375,-1560
1.4,0.21375,-1368
1.4,0.04625,-1532
1.4,0.05,-1552
1.4,0.0425,-1368
1.4,0.01375,-1420
1.4,0.0875,-1376
1.4,0.06375,-1396
1.4,0.17875,-1544
1.4,0.05,-1376
1.4,0.11125,-1576
1.4,0.02875,-1368
1.4,0.14625,-1600
1.4,0.1025,-1472
1.4,0.12625,-1488
1.4,0.22875,-1436
1.4,0.13625,-1528
1.4,0.05375,-1356
1.4,0.19625,-1444
1.4,0.05125,-1512
1.4,0.0125,-1444
1.4,0.01375,-1464
1.4,0.0425,-1476
1.4,0.16125,-1508
1.4,0.0025,-1392
1.4,0.1375,-1644
1.4,0.09125,-1544
1.4,0.19875,-1456
1.4,0.02125,-1388
1.4,0.00125,-1524
1.4,0.0125,-1512
1.4,0.14,-1428
1.4,0.06,-1516
1.4,0.055,-1404
1.4,0.20375,-1360
1.4,0.1725,-1308
1.4,0.1075,-1560
1.4,0.065,-1452
1.4,0.10875,-1376
1.4,0.1425,-1572
1.4,0.035,-1468
1.4,0.0675,-1508
1.4,0.2125,-1720
1.4,0.0375,-1452
1.4,0.1375,-1560
1.4,0.01125,-1400
1.4,0.11125,-1364
1.4,0.01375,-1352
1.4,0.14875,-1484
1.4,0.115,-1616
1.4,0.03875,-1456
1.4,0.08625,-1388
1.4,0.0625,-1412
1.4,0.04,-1412
1.4,0.08,-1392
1.4,0.01375,-1260
1.4,0.09125,-1312
1.4,0.0675,-1412
1.4,0.02125,-1444
1.4,0.06625,-1416
1.4,0.0525,-1516
1.4,0.1,-1308
1.4,0.1275,-1512
1.4,0.0675,-1404
1.4,0.0925,-1412
1.4,0.13625,-1408
1.4,0.0575,-1460
1.4,0.1075,-1476
1.4,0.02625,-1504
1.4,0.005,-1436
1.4,0.03,-1360
1.4,0.0775,-1564
1.4,0.1525,-1452
1.4,0.07875,-1408
1.4,0.145,-1428
1.4,0.05625,-1496
1.4,0.01125,-1444
1.4,0.0375,-1416
1.4,0.135,-1328
1.4,0.0975,-1588
1.4,0.175,-1508
1.4,0.03125,-1412
1.4,0.10625,-1468
1.4,0.20875,-1428
1.4,0.1325,-1616
1.4,0.0125,-1436
1.4,0.075,-1368
1.4,0.19875,-1348
1.4,0.075,-1536
1.4,0.1075,-1432
1.4,0.09125,-1492
1.4,0.15125,-1472
1.4,0.03125,-1412
1.4,0.16875,-1412
1.4,0.065,-1412
1.4,0.18375,-1452
1.4,0.17375,-1368
1.4,0.1475,-1560
1.4,0.05625,-1504
1.4,0.0125,-1412
1.4,0.085,-1544
1.4,0.02875,-1476
1.4,0.00375,-1568
1.4,0.0475,-1516
1.4,0.1075,-1352
1.4,0.0825,-1528
1.4,0.02875,-1444
1.4,0.065,-1504
1.4,0.0675,-1352
1.4,0.095,-1552
1.4,0.00625,-1348
1.4,0.0175,-1440
1.4,0.18625,-1344
1.4,0.0625,-1520
1.4,0,-1576
1.4,0.25,-1592
1.4,0.1275,-1608
1.4,0.04625,-1420
1.4,0.1025,-1324
1.4,0.00375,-1468
1.4,0.1675,-1412
1.4,0.00375,-1528
1.4,0.0425,-1480
1.4,0.2375,-1388
1.4,0.105,-1340
1.4,0.23375,-1452
1.4,0.0375,-1320
1.4,0.09875,-1348
1.4,0.015,-1400
1.4,0.05875,-1532
1.4,0.15,-1440
1.4,0.05875,-1508
1.4,0.09125,-1436
1.4,0.1225,-1480
1.4,0.0725,-1448
1.4,0.06875,-1596
1.4,0.04,-1420
1.4,0.05375,-1496
1.4,0.10625,-1512
1.4,0.0575,-1504
1.4,0.13625,-1544
1.4,0.07375,-1336
1.4,0.02875,-1408
1.4,0.11125,-1500
1.4,0.1125,-1504
1.4,0.12875,-1620
1.4,0.095,-1552
1.4,0.25875,-1456
1.4,0.07875,-1532
1.4,0.1075,-1464
1.4,0.24875,-1504
1.4,0.09125,-1596
1.4,0.05,-1436
1.4,0.12375,-1592
1.4,0.12,-1340
1.4,0.07375,-1356
1.4,0.0075,-1376
1.4,0.0525,-1428
1.4,0.07125,-1468
1.4,0.00875,-1384
1.4,0.1475,-1388
1.4,0.00125,-1440
1.4,0.07125,-1492
1.4,0.1025,-1444
1.4,0.0175,-1396
1.4,0.08375,-1344
1.4,0.02,-1308
1.4,0.12875,-1432
1.4,0.08625,-1524
1.4,0.0825,-1520
1.4,0.0875,-1596
1.4,0.01,-1500
1.4,0.08125,-1508
1.4,0.18125,-1468
1.4,0.015,-1436
1.4,0.24125,-1620
1.4,0.1425,-1460
1.4,0.12875,-1536
1.4,0.02625,-1484
1.4,0.0575,-1440
1.4,0.14875,-1488
1.4,0.1225,-1492
1.4,0.035,-1508
1.4,0.07125,-1504
1.4,0.00375,-1588
1.4,0.1775,-1508
1.4,0.29375,-1448
1.4,0.00125,-1464
1.4,0.00625,-1408
1.4,0.11,-1324
1.4,0.06125,-1440
1.4,0.1175,-1376
1.4,0.04375,-1472
1.4,0.12375,-1492
1.4,0.00375,-1384
1.4,0.2,-1596
1.4,0.095,-1428
1.4,0.04125,-1332
1.4,0.015,-1496
1.4,0.03125,-1484
1.4,0.03875,-1344
1.4,0.07625,-1468
1.4,0.07,-1368
1.4,0.1625,-1412
1.4,0.24875,-1472
1.4,0.0475,-1472
1.4,0.09375,-1312
1.4,0.02125,-1520
1.4,0.005,-1388
1.4,0.045,-1400
1.4,0.03,-1496
1.4,0.04875,-1360
1.4,0.04375,-1372
1.4,0.0775,-1404
1.4,0.19375,-1384
1.4,0.0325,-1500
1.4,0.03125,-1428
1.4,0.00625,-1552
1.4,0.0425,-1376
1.4,0.0925,-1428
1.4,0.12375,-1500
1.4,0.0525,-1396
1.4,0.0725,-1392
1.4,0.0525,-1380
1.4,0,-1284
1.4,0.02625,-1376
1.4,0.00875,-1408
1.4,0.195,-1512
1.4,0.15375,-1512
1.4,0.11125,-1488
1.4,0.005,-1336
1.4,0.0275,-1424
1.4,0.0675,-1424
1.4,0.23875,-1524
1.4,0.135,-1480
1.4,0.03625,-1536
1.4,0.0775,-1396
1.4,0.20875,-1364
1.4,0.1475,-1544
1.4,0.1375,-1424
1.4,0.0275,-1528
1.4,0.07,-1416
1.4,0.04875,-1468
1.4,0.03,-1424
1.4,0.02375,-1412
1.4,0.09,-1516
1.4,0.06,-1492
1.4,0.065,-1388
1.4,0.0725,-1420
1.4,0.2325,-1520
1.4,0.2275,-1400
1.4,0.0675,-1464
1.4,0.0425,-1428
1.4,0.14875,-1400
1.4,0.05375,-1536
1.4,0.0225,-1340
1.4,0.15,-1472
1.4,0.07,-1536
1.4,0.12125,-1504
1.4,0.09875,-1440
1.4,0.09,-1440
1.4,0.02375,-1516
1.4,0.04125,-1436
1.4,0.13625,-1536
1.4,0.17625,-1468
1.4,0.01375,-1484
1.4,0.1175,-1332
1.4,0.19875,-1560
1.4,0.085,-1232
1.4,0.15625,-1476
1.4,0.14625,-1516
1.4,0,-1416
1.4,0.0275,-1260
1.4,0.06625,-1344
1.4,0.0275,-1296
1.4,0.01375,-1396
1.4,0.17625,-1580
1.4,0.07625,-1424
1.4,0.00375,-1504
1.4,0.0675,-1396
1.4,0.0875,-1348
1.4,0.27,-1412
1.4,0.23375,-1540
1.4,0.065,-1500
1.4,0.0625,-1380
1.4,0.08625,-1416
1.4,0.115,-1500
1.4,0.13375,-1496
1.4,0.0675,-1516
1.4,0.06875,-1488
1.4,0.02375,-1468
1.4,0.145,-1408
1.4,0.10625,-1488
1.4,0.2125,-1540
1.4,0.0625,-1524
1.4,0.02375,-1504
1.4,0.07375,-1512
1.4,0.02125,-1264
1.4,0.1825,-1464
1.4,0.04375,-1268
1.4,0.00625,-1392
1.4,0.05875,-1572
1.4,0.005,-1340
1.4,0.2,-1412
1.4,0.11875,-1456
1.4,0.04375,-1612
1.4,0.1675,-1456
1.4,0.025,-1476
1.4,0.1,-1600
1.4,0.04875,-1320
1.4,0.10875,-1424
1.4,0.1125,-1500
1.4,0.18,-1460
1.4,0.0375,-1432
1.4,0.075,-1568
1.4,0.00875,-1504
1.4,0.155,-1352
1.4,0.06,-1416
1.4,0.15,-1408
1.4,0.10125,-1412
1.4,0.155,-1424
1.4,0.04125,-1604
1.4,0.055,-1420
1.4,0,-1440
1.4,0.0175,-1264
1.4,0.04,-1468
1.4,0.13,-1460
1.4,0.02875,-1412
1.4,0.06,-1424
1.4,0.04875,-1416
1.4,0.02125,-1508
1.4,0.05625,-1440
1.4,0.145,-1480
1.4,0.0775,-1372
1.4,0.07375,-1504
1.4,0.14625,-1268
1.4,0.04375,-1376
1.4,0.06125,-1400
1.4,0.12625,-1528
1.4,0.005,-1316
1.4,0.09,-1404
1.4,0.09875,-1456
1.4,0.18625,-1476
1.4,0.13,-1624
1.4,0.16375,-1476
1.4,0.13125,-1396
1.4,0.075,-1468
1.4,0.155,-1484
1.4,0.0125,-1428
1.4,0.12875,-1396
1.4,0.13625,-1648
1.4,0.04875,-1404
1.4,0.03,-1580
1.4,0.185,-1460
1.4,0.06125,-1336
1.4,0.0925,-1472
1.4,0.14125,-1496
1.4,0.0125,-1508
1.4,0.0075,-1540
1.4,0.0425,-1500
1.4,0.22,-1416
1.4,0.06625,-1556
1.4,0.32375,-1480
1.4,0.14,-1544
1.4,0.22125,-1604
1.4,0.1325,-1308
1.4,0.07875,-1324
1.4,0.01125,-1480
1.4,0.1525,-1488
1.4,0.05375,-1340
1.4,0.03,-1376
1.4,0.0875,-1456
1.4,0.23,-1368
1.4,0.11375,-1472
1.4,0.0475,-1380
1.4,0.00875,-1352
1.4,0.0225,-1412
1.4,0.10375,-1448
1.4,0.08125,-1568
1.4,0.11,-1476
1.4,0.02875,-1444
1.4,0.08875,-1524
1.4,0.03875,-1404
1.4,0.00875,-1424
1.4,0.0875,-1600
1.4,0.0525,-1432
1.4,0.02125,-1428
1.4,0.16,-1476
1.4,0.0725,-1392
1.4,0.02375,-1460
1.4,0.22,-1448
1.4,0.14875,-1492
1.4,0.0725,-1500
1.4,0.00625,-1500
1.4,0.04625,-1328
1.4,0.04125,-1392
1.4,0.135,-1512
1.4,0.07375,-1536
1.4,0.045,-1468
1.4,0.09375,-1540
1.4,0.075,-1484
1.4,0.14375,-1504
1.4,0.26625,-1568
1.4,0.05,-1436
1.4,0.04,-1536
1.4,0.1325,-1456
1.4,0.10625,-1440
1.4,0.1175,-1352
1.4,0.0875,-1572
1.4,0.07375,-1200
1.4,0.0975,-1504
1.4,0.0825,-1480
1.4,0.3425,-1616
1.4,0.035,-1568
1.4,0.0975,-1324
1.4,0.05875,-1500
1.4,0.13125,-1476
1.4,0.07125,-1548
1.4,0.1,-1604
1.4,0.1525,-1464
1.4,0.03,-1512
1.4,0.12875,-1428
1.4,0.04,-1468
1.4,0.00125,-1584
1.4,0.06875,-1448
1.4,0.0875,-1516
1.4,0.07125,-1404
1.4,0.04625,-1672
1.4,0.0675,-1564
1.4,0.055,-1492
1.4,0.07625,-1496
1.4,0.0625,-1568
1.4,0.085,-1356
1.4,0.0875,-1496
1.4,0.0075,-1416
1.4,0.1175,-1472
1.4,0.01,-1468
1.4,0.10125,-1564
1.4,0.15125,-1456
1.4,0.03,-1516
1.4,0.10625,-1480
1.4,0.18375,-1404
1.4,0.0075,-1428
1.4,0.25375,-1596
1.4,0.0525,-1344
1.4,0.1275,-1336
1.4,0.11875,-1528
1.4,0.04375,-1408
1.4,0.00375,-1360
1.4,0.02875,-1308
1.4,0.07875,-1476
1.4,0.23,-1528
1.4,0.19625,-1572
1.4,0.2425,-1540
1.4,0.02,-1548
1.4,0.1525,-1668
1.4,0.15,-1400
1.4,0.09375,-1500
1.4,0.02125,-1368
1.4,0.07375,-1448
1.4,0.1475,-1396
1.4,0.01375,-1324
1.4,0.1425,-1548
1.4,0.1575,-1472
1.4,0.18375,-1648
1.4,0.05,-1368
1.4,0.00125,-1424
1.4,0.14,-1396
1.4,0.01875,-1316
1.4,0.085,-1552
1.4,0.07125,-1344
1.4,0.09875,-1380
1.4,0.06875,-1532
1.4,0.07,-1492
1.4,0.0725,-1404
1.4,0.12,-1376
1.4,0.195,-1568
1.4,0.00625,-1484
1.4,0.03375,-1432
1.4,0.145,-1388
1.4,0.2225,-1432
1.4,0.02875,-1420
1.4,0.09625,-1500
1.4,0.02,-1472
1.4,0.0575,-1520
1.4,0.18375,-1444
1.4,0.045,-1464
1.4,0.06,-1540
1.4,0.025,-1544
1.4,0.10625,-1484
1.4,0.06625,-1332
1.4,0.04,-1264
1.4,0.125,-1460
1.4,0.00375,-1556
1.4,0.08125,-1352
1.4,0.04875,-1404
1.4,0.22,-1476
1.4,0.105,-1440
1.4,0.21,-1500
1.4,0.14125,-1448
1.4,0.04875,-1500
1.4,0.13,-1560
1.4,0.11,-1528
1.4,0.185,-1484
1.4,0.13625,-1600
1.4,0.01625,-1368
1.4,0.1,-1560
1.4,0.0125,-1340
1.4,0.125,-1336
1.4,0.19875,-1428
1.4,0.05,-1428
1.4,0.02375,-1468
1.4,0.235,-1532
1.4,0.00625,-1436
1.4,0.10375,-1372
1.4,0.11125,-1552
1.4,0.045,-1476
1.4,0.05125,-1404
1.4,0.05875,-1328
1.4,0.12625,-1452
1.4,0.095,-1500
1.4,0.04375,-1360
1.4,0.02875,-1344
1.4,0.025,-1584
1.4,0.0425,-1516
1.4,0.1125,-1532
1.4,0.0225,-1424
1.4,0.0575,-1664
1.4,0.0725,-1356
1.4,0.00375,-1520
1.4,0.01875,-1544
1.4,0.1375,-1516
1.4,0.105,-1548
1.4,0.1475,-1428
1.4,0.28875,-1516
1.4,0.04625,-1484
1.4,0.0125,-1576
1.4,0.0375,-1464
1.4,0.18625,-1448
1.4,0.01625,-1468
1.4,0.05875,-1364
1.4,0.12125,-1332
1.4,0.00875,-1516
1.4,0.025,-1448
1.4,0.06,-1440
1.4,0.0775,-1508
1.4,0.14375,-1420
1.4,0.10375,-1384
1.4,0.22375,-1472
1.4,0.065,-1464
1.4,0.07125,-1580
1.4,0.15625,-1440
1.4,0.08875,-1424
1.4,0.18875,-1372
1.4,0.11,-1376
1.4,0.03875,-1380
1.4,0.17,-1388
1.4,0.09125,-1460
1.4,0.00125,-1476
1.4,0.03625,-1404
1.4,0.05625,-1428
1.4,0.05,-1516
1.4,0.07875,-1444
1.4,0.03625,-1616
1.4,0.06,-1544
1.4,0.08625,-1488
1.4,0.125,-1612
1.4,0.1025,-1444
1.4,0.04875,-1388
1.4,0.0025,-1488
1.4,0.00375,-1328
1.4,0.095,-1408
1.4,0.1225,-1480
1.4,0.1175,-1428
1.4,0.14875,-1364
1.4,0.00375,-1448
1.4,0.09625,-1336
1.4,0.06375,-1536
1.4,0.00875,-1420
1.4,0.145,-1508
1.4,0.045,-1580
1.4,0.02375,-1344
1.4,0.05125,-1352
1.4,0.0375,-1500
1.4,0.0575,-1620
1.4,0.28875,-1468
1.4,0.11875,-1412
1.4,0.11125,-1424
1.4,0.02625,-1404
1.4,0.08375,-1412
1.4,0.03875,-1556
1.4,0.005,-1460
1.4,0.01,-1448
1.4,0.05875,-1452
1.4,0.01875,-1360
1.4,0.08875,-1412
1.4,0.0575,-1480
1.4,0.05625,-1448
1.4,0.0775,-1556
1.4,0.095,-1296
1.4,0.11875,-1448
1.4,0.0475,-1496
1.4,0.08,-1404
1.4,0.02125,-1444
1.4,0.1075,-1504
1.4,0.04625,-1536
1.4,0.0075,-1436
1.4,0.0025,-1328
1.4,0.06,-1468
1.4,0.07,-1432
1.4,0.07875,-1500
1.4,0.24625,-1504
1.4,0.11,-1488
1.4,0.085,-1444
1.4,0.11375,-1348
1.4,0.07625,-1476
1.4,0.01,-1420
1.4,0.04375,-1324
1.4,0.085,-1488
1.4,0.105,-1392
1.4,0.1875,-1316
1.4,0.11875,-1288
1.4,0.0075,-1472
1.4,0.00875,-1372
1.4,0.0075,-1544
1.4,0.21875,-1492
1.4,0.08625,-1424
1.4,0.015,-1404
1.4,0.09625,-1620
1.4,0.03125,-1412
1.4,0.25625,-1556
1.4,0.075,-1512
1.4,0.10625,-1548
1.4,0.1125,-1352
1.4,0.01875,-1512
1.4,0.02625,-1420
1.4,0.13,-1420
1.4,0.06625,-1508
1.4,0.13625,-1492
1.4,0.105,-1328
1.4,0.0575,-1436
1.4,0.065,-1388
1.4,0.095,-1420
1.4,0.0425,-1448
1.4,0.1575,-1624
1.4,0.1025,-1328
1.4,0.33375,-1480
1.4,0.00875,-1492
1.4,0.04875,-1496
1.4,0.05875,-1356
1.4,0.005,-1388
1.4,0.10625,-1492
1.4,0.01125,-1400
1.4,0.0025,-1400
1.4,0.105,-1488
1.4,0.02625,-1448
1.4,0.07125,-1404
1.4,0.26,-1556
1.4,0.23875,-1548
1.4,0.03125,-1328
1.4,0.035,-1400
1.4,0.15375,-1468
1.4,0.065,-1440
1.4,0.06875,-1412
1.4,0.08,-1516
1.4,0.0325,-1360
1.4,0.1175,-1396
1.4,0.145,-1364
1.4,0.04375,-1472
1.4,0.055,-1432
1.4,0.15,-1408
1.4,0.13,-1504
1.4,0.07125,-1384
1.4,0.08,-1604
1.4,0.0675,-1536
1.4,0.1075,-1400
1.4,0.27,-1540
1.4,0.13375,-1512
1.4,0.03,-1544
1.4,0.06375,-1404
1.4,0.10375,-1360
1.4,0.02875,-1380
1.4,0.01375,-1528
1.4,0.065,-1372
1.4,0.2225,-1652
1.4,0.0325,-1544
1.4,0.02875,-1332
1.4,0.09,-1604
1.4,0.02625,-1536
1.4,0.06,-1476
1.4,0.1125,-1472
1.4,0.1775,-1440
1.4,0.05375,-1440
1.4,0.02625,-1412
1.4,0.07,-1440
1.4,0.16125,-1460
1.4,0.14125,-1484
1.4,0.11375,-1456
1.4,0.10875,-1580
1.4,0.22125,-1524
1.4,0.015,-1544
1.4,0.01875,-1276
1.4,0.13,-1488
1.4,0.07375,-1432
1.4,0.09875,-1288
1.4,0.0675,-1484
1.4,0.14125,-1496
1.4,0.175,-1380
1.4,0.075,-1452
1.4,0.10875,-1384
1.4,0.055,-1392
1.4,0.00125,-1348
1.4,0.1,-1372
1.4,0.03,-1452
1.4,0.06875,-1432
1.4,0.0375,-1420
1.4,0.04625,-1328
1.4,0.02375,-1420
1.4,0.11,-1600
1.4,0.0075,-1628
1.4,0,-1324
1.4,0.13,-1392
1.4,0.04,-1292
1.4,0.06,-1372
1.4,0.075,-1308
1.4,0.11,-1368
1.4,0.05625,-1564
1.4,0.045,-1380
1.4,0.03875,-1464
1.4,0.13375,-1444
1.4,0.095,-1524
1.4,0.04625,-1492
1.4,0.08875,-1504
1.4,0.135,-1432
1.4,0.00875,-1504
1.4,0.075,-1344
1.4,0.1575,-1540
1.4,0.01625,-1504
1.4,0.015,-1412
1.4,0.12875,-1444
1.4,0.04625,-1468
1.4,0.00875,-1448
1.4,0.05375,-1456
1.4,0.05375,-1376
1.4,0.03,-1516
1.4,0.195,-1424
1.4,0.135,-1504
1.4,0.0125,-1404
1.4,0.0175,-1572
1.4,0.035,-1580
1.4,0.09,-1420
1.4,0.00875,-1364
1.4,0.2175,-1332
1.4,0.045,-1196
1.4,0.10125,-1420
1.4,0.01375,-1392
1.4,0.035,-1608
1.4,0.0325,-1600
1.4,0.005,-1392
1.4,0.0975,-1508
1.4,0.065,-1600
1.4,0.1825,-1492
1.4,0.15,-1512
1.4,0.16125,-1420
1.4,0.05625,-1396
1.4,0.16,-1516
1.4,0.035,-1520
1.4,0.01625,-1340
1.4,0.05,-1428
1.4,0.045,-1548
1.4,0.1225,-1412
1.4,0.2275,-1380
1.4,0.14875,-1456
1.4,0.21875,-1376
1.4,0.1875,-1408
1.4,0.17625,-1496
1.4,0.07125,-1564
1.4,0.04875,-1364
1.4,0.0325,-1452
1.4,0,-1456
1.4,0.15375,-1464
1.4,0.03375,-1412
1.4,0.025,-1468
1.4,0.03,-1440
1.4,0.17875,-1496
1.4,0.09125,-1468
1.4,0.0175,-1472
1.4,0.18625,-1440
1.4,0.14375,-1336
1.4,0.1025,-1436
1.4,0.03375,-1460
1.4,0.13875,-1480
1.4,0.03,-1388
1.4,0.0025,-1512
1.4,0.075,-1352
1.4,0.04,-1340
1.4,0.04625,-1412
1.4,0.015,-1372
1.4,0.02375,-1280
1.4,0.11375,-1580
1.4,0.005,-1344
1.4,0.0125,-1432
1.4,0.00625,-1472
1.4,0.105,-1532
1.4,0.0925,-1608
1.4,0.1375,-1492
1.4,0.0875,-1508
1.4,0.18625,-1428
1.4,0.095,-1428
1.4,0.05125,-1324
1.4,0.14375,-1540
1.4,0.13,-1508
1.4,0.07125,-1336
1.4,0.13625,-1352
1.4,0.0375,-1320
1.4,0.0175,-1500
1.4,0.10375,-1364
1.4,0.02,-1412
1.4,0.05,-1480
1.4,0.13,-1388
1.4,0.16875,-1268
1.4,0.10875,-1352
1.4,0.04125,-1444
1.4,0.0125,-1492
1.4,0.05875,-1620
1.4,0.13625,-1608
1.4,0.035,-1376
1.4,0.145,-1392
1.4,0.0925,-1552
1.4,0.03,-1420
1.4,0.02,-1464
1.4,0.05375,-1296
1.4,0.12,-1496
1.4,0.2725,-1584
1.4,0.095,-1400
1.4,0.21375,-1504
1.4,0.095,-1380
1.4,0.0425,-1496
1.4,0.07375,-1572
1.4,0.0075,-1536
1.4,0.2275,-1392
1.4,0.00125,-1472
1.4,0.03875,-1620
1.4,0.12875,-1460
1.4,0.00125,-1520
1.4,0.1575,-1436
1.4,0.1125,-1424
1.4,0.06375,-1536
1.4,0.02875,-1504
1.4,0.085,-1504
1.4,0.13,-1488
1.4,0.02625,-1460
1.4,0.13,-1404
1.4,0.01625,-1372
1.4,0.02375,-1576
1.4,0.20625,-1368
1.4,0.10125,-1424
1.4,0.0675,-1432
1.4,0.2725,-1552
1.4,0.12,-1360
1.4,0.06,-1372
1.4,0.1475,-1412
1.4,0.065,-1312
1.4,0.1175,-1388
1.4,0.00125,-1492
1.4,0.02,-1272
1.4,0.07,-1440
1.4,0.01375,-1332
1.4,0.1225,-1388
1.4,0.02375,-1360
1.4,0.1425,-1456
1.4,0.04,-1508
1.4,0.05625,-1528
1.4,0.14875,-1556
1.4,0.04,-1452
1.4,0.05375,-1452
1.4,0.05375,-1456
1.4,0.12625,-1384
1.4,0.03875,-1512
1.4,0.01875,-1372
1.4,0.12125,-1516
1.4,0.0825,-1472
1.4,0.21875,-1468
1.4,0.1375,-1436
1.4,0.18,-1384
1.4,0.19,-1416
1.4,0.16875,-1488
1.4,0.1075,-1432
1.4,0.0425,-1484
1.4,0.12125,-1536
1.4,0.115,-1276
1.4,0.08125,-1364
1.4,0.0375,-1388
1.4,0.07125,-1380
1.4,0.12,-1432
1.4,0.12125,-1548
1.4,0.01125,-1424
1.4,0.1025,-1352
1.4,0.0225,-1480
1.4,0.06875,-1368
1.4,0.0025,-1504
1.4,0.13875,-1540
1.4,0.065,-1468
1.4,0.01625,-1452
1.4,0.0675,-1444
1.4,0.065,-1516
1.4,0.045,-1476
1.4,0.005,-1456
1.4,0.12,-1460
1.4,0.11625,-1492
1.4,0.04,-1340
1.4,0.12375,-1548
1.4,0.0675,-1428
1.4,0.09375,-1512
1.4,0.06125,-1220
1.4,0.035,-1316
1.4,0.17,-1548
1.4,0.19375,-1484
1.4,0.085,-1416
1.4,0.06375,-1448
1.4,0.0725,-1228
1.4,0.0475,-1456
1.4,0.10625,-1404
1.4,0.02375,-1544
1.4,0.07875,-1460
1.4,0.02,-1488
1.4,0.15125,-1520
1.4,0.01625,-1392
1.4,0.04125,-1508
1.4,0.1,-1348
1.4,0.15625,-1456
1.4,0.17875,-1412
1.4,0.0275,-1404
1.4,0.1625,-1360
1.4,0.025,-1284
1.4,0.015,-1372
1.4,0.07125,-1520
1.4,0.04125,-1300
1.4,0.07,-1472
1.4,0.055,-1380
1.4,0.12,-1568
1.4,0.01625,-1468
1.4,0.135,-1468
1.4,0.02125,-1480
1.4,0.04,-1416
1.4,0.0575,-1448
1.4,0.15,-1488
1.4,0.0925,-1580
1.4,0.02625,-1532
1.4,0.215,-1704
1.4,0.1875,-1472
1.4,0.04,-1532
1.4,0.0975,-1424
1.4,0.15625,-1396
1.4,0.02375,-1420
1.4,0.0825,-1460
1.4,0.04375,-1408
1.4,0.00875,-1468
1.4,0.13,-1380
1.4,0.02,-1552
1.4,0.09375,-1372
1.4,0.025,-1428
1.4,0.075,-1488
1.4,0.18375,-1388
1.4,0.11125,-1452
1.4,0.1725,-1452
1.4,0.09125,-1420
1.4,0.14625,-1532
1.4,0.0625,-1300
1.4,0.06,-1340
1.4,0.00375,-1508
1.4,0.0975,-1280
1.4,0.055,-1372
1.4,0.0525,-1324
1.4,0.00875,-1460
1.4,0.0325,-1400
1.4,0.16875,-1460
1.4,0.13125,-1484
1.4,0.00625,-1516
1.4,0.07875,-1304
1.4,0.06875,-1380
1.4,0.04625,-1520
1.4,0.06,-1552
1.4,0.0425,-1420
1.4,0.04375,-1548
1.4,0.1825,-1552
1.4,0.0225,-1452
1.4,0.0825,-1428
1.4,0.0875,-1600
1.4,0.035,-1432
1.4,0.1,-1440
1.4,0.0175,-1576
1.4,0.035,-1476
1.4,0.145,-1324
1.4,0.085,-1348
1.4,0.17,-1556
1.4,0.00625,-1492
1.4,0.12875,-1532
1.4,0.0125,-1292
1.4,0.26,-1556
1.4,0.06625,-1300
1.4,0.14625,-1460
1.4,0.04375,-1424
1.4,0.335,-1664
1.4,0.11875,-1480
1.4,0.04625,-1332
1.4,0.1,-1272
1.4,0.1725,-1372
1.4,0.00125,-1408
1.4,0.0125,-1480
1.4,0.02,-1424
1.4,0.05375,-1600
1.4,0.07375,-1448
1.4,0.04125,-1392
1.4,0.0975,-1440
1.4,0.16375,-1556
1.4,0.045,-1396
1.4,0.135,-1516
1.4,0.07875,-1548
1.4,0.03375,-1444
1.4,0.01375,-1360
1.4,0.02,-1484
1.4,0.08875,-1508
1.4,0.01,-1464
1.4,0.1175,-1424
1.4,0.00375,-1528
1.4,0.1825,-1492
1.4,0.00125,-1524
1.4,0.11375,-1596
1.4,0.03625,-1380
1.4,0.07625,-1460
1.4,0,-1296
1.4,0.06625,-1428
1.4,0.045,-1392
1.4,0.0525,-1328
1.4,0.195,-1452
1.4,0.00375,-1528
1.4,0.0175,-1560
1.4,0.00375,-1408
1.4,0.02,-1492
1.4,0.05125,-1468
1.4,0.17,-1396
1.4,0.24,-1460
1.4,0.03375,-1344
1.4,0.025,-1460
1.4,0.01375,-1368
1.4,0.1625,-1544
1.4,0.09,-1468
1.4,0.1125,-1416
1.4,0.025,-1432
1.4,0.0025,-1524
1.4,0.01625,-1524
1.4,0.0375,-1444
1.4,0.16375,-1636
1.4,0.14625,-1492
1.4,0.2375,-1424
1.4,0.1375,-1476
1.4,0.105,-1428
1.4,0.0275,-1468
1.4,0.01875,-1540
1.4,0.155,-1544
1.4,0.19,-1460
1.4,0.18625,-1440
1.4,0.1075,-1232
1.4,0.0175,-1304
1.4,0.0725,-1396
1.4,0.12125,-1408
1.4,0.2025,-1432
1.4,0.16375,-1468
1.4,0.1125,-1448
1.4,0.10875,-1336
1.4,0.0575,-1428
1.4,0.13625,-1476
1.4,0.065,-1436
1.4,0.1075,-1392
1.4,0.02,-1384
1.4,0.00625,-1488
1.4,0.1675,-1560
1.4,0.0275,-1492
1.4,0.0075,-1412
1.4,0.1175,-1320
1.4,0.02625,-1432
1.4,0.2,-1508
1.4,0.105,-1568
1.4,0.02125,-1568
1.4,0.1075,-1424
1.4,0.1775,-1404
1.4,0.00375,-1536
1.4,0.17625,-1468
1.4,0.0325,-1496
1.4,0.0025,-1308
1.4,0.16875,-1420
1.4,0.225,-1408
1.4,0.11125,-1428
1.4,0.19,-1464
1.4,0.14875,-1512
1.4,0.015,-1576
1.4,0.14375,-1448
1.4,0.0525,-1452
1.4,0.26875,-1560
1.4,0.0375,-1312
1.4,0.0425,-1420
1.4,0.06375,-1428
1.4,0.20375,-1508
1.4,0.05625,-1316
1.4,0.16375,-1396
1.4,0.0625,-1656
1.4,0.035,-1560
1.4,0.1125,-1372
1.4,0.03,-1200
1.4,0.0475,-1376
1.4,0.00375,-1440
1.4,0.055,-1436
1.4,0.0375,-1496
1.4,0.07875,-1572
1.4,0.0575,-1448
1.4,0.1775,-1428
1.4,0.135,-1460
1.4,0.0775,-1368
1.4,0.01,-1440
1.4,0.08625,-1472
1.4,0.0175,-1556
1.4,0.09125,-1396
1.4,0.0925,-1556
1.4,0.13375,-1444
1.4,0.165,-1384
1.4,0.1425,-1556
1.4,0.1175,-1516
1.4,0.03875,-1484
1.4,0.1175,-1512
1.4,0.00125,-1540
1.4,0.1425,-1544
1.4,0.105,-1408
1.4,0.06,-1352
1.4,0.0975,-1372
1.4,0.0125,-1456
1.4,0.12875,-1420
1.4,0.22375,-1492
1.4,0.1625,-1560
1.4,0.0925,-1512
1.4,0.05375,-1580
1.4,0.14875,-1420
1.4,0.05875,-1304
1.4,0.12375,-1432
1.4,0.1625,-1496
1.4,0.18,-1312
1.4,0.00875,-1344
1.4,0.2175,-1580
1.4,0.02,-1424
1.4,0.05625,-1500
1.4,0.055,-1428
1.4,0.08875,-1432
1.4,0.04125,-1496
1.4,0.02375,-1484
1.4,0.1625,-1508
1.4,0.12,-1284
1.4,0.08,-1404
1.4,0.02125,-1460
1.4,0.03,-1528
1.4,0.09125,-1456
1.4,0.05,-1380
1.4,0.08625,-1408
1.4,0.2125,-1484
1.4,0.06,-1300
1.4,0.12625,-1424
1.4,0.0475,-1432
1.4,0.135,-1580
1.4,0.0875,-1476
1.4,0.15,-1388
1.4,0.02,-1352
1.4,0.0225,-1428
1.4,0.135,-1560
1.4,0.025,-1448
1.4,0.08125,-1400
1.4,0.21875,-1444
1.4,0.02875,-1496
1.4,0.19625,-1536
1.4,0.0675,-1376
1.4,0.1825,-1428
1.4,0.0175,-1472
1.4,0.03125,-1476
1.4,0.08125,-1384
1.4,0.045,-1468
1.4,0.08875,-1548
1.4,0.07125,-1372
1.4,0.16125,-1500
1.4,0.2175,-1316
1.4,0.0175,-1416
1.4,0.11125,-1520
1.4,0.05,-1376
1.4,0.13375,-1536
1.4,0.28,-1612
1.4,0.065,-1548
1.4,0.1375,-1344
1.4,0.07,-1480
1.4,0.14625,-1488
1.4,0.00625,-1528
1.4,0.06625,-1416
1.4,0.11875,-1452
1.4,0.105,-1564
1.4,0.005,-1432
1.4,0.2175,-1500
1.4,0.125,-1436
1.4,0.0275,-1464
1.4,0.105,-1596
1.4,0.0425,-1492
1.4,0.07,-1496
1.4,0.08625,-1576
1.4,0.06875,-1436
1.4,0.2325,-1476
1.4,0.035,-1528
1.4,0.09125,-1424
1.4,0.16625,-1540
1.4,0.05625,-1320
1.4,0.05875,-1664
1.4,0.035,-1356
1.4,0.05875,-1284
1.4,0.12625,-1424
1.4,0.0575,-1500
1.4,0.015,-1308
1.4,0.18625,-1512
1.4,0.11125,-1508
1.4,0.095,-1348
1.4,0.19,-1496
1.4,0.21875,-1552
1.4,0.2475,-1396
1.4,0.17125,-1456
1.4,0.085,-1448
1.4,0.05375,-1348
1.4,0.06,-1484
1.4,0.125,-1400
1.4,0.01875,-1360
1.4,0.015,-1408
1.4,0.01875,-1480
1.4,0.0775,-1464
1.4,0.00125,-1300
1.4,0.17125,-1556
1.4,0.095,-1436
1.4,0.06375,-1404
1.4,0.05375,-1440
1.4,0.07,-1436
1.4,0.08875,-1396
1.4,0.12625,-1496
1.4,0.15875,-1444
1.4,0.11625,-1344
1.4,0.035,-1508
1.4,0.00125,-1280
1.4,0.19375,-1520
1.4,0.105,-1420
1.4,0.12,-1460
1.4,0.165,-1552
1.4,0.21,-1496
1.4,0.01875,-1376
1.4,0.01,-1468
1.4,0.1225,-1456
1.4,0.07625,-1396
1.4,0.00375,-1448
1.4,0.03375,-1584
1.4,0.07375,-1456
1.4,0.01375,-1376
1.4,0.0975,-1544
1.4,0.06125,-1484
1.4,0.04375,-1456
1.4,0.065,-1320
1.4,0.00125,-1296
1.4,0.17375,-1436
1.4,0.105,-1404
1.4,0.1625,-1596
1.4,0.0925,-1420
1.4,0.035,-1520
1.4,0.015,-1572
1.4,0.10125,-1520
1.4,0.21125,-1360
1.4,0.125,-1444
1.4,0.055,-1456
1.4,0.01125,-1360
1.4,0.04875,-1436
1.4,0.18125,-1564
1.4,0.02625,-1460
1.4,0.0275,-1232
1.4,0.03875,-1488
1.4,0.06,-1476
1.4,0.025,-1464
1.4,0.025,-1520
1.4,0.09125,-1440
1.4,0.00375,-1456
1.4,0.0975,-1440
1.4,0.05625,-1312
1.4,0.04125,-1476
1.4,0.25125,-1552
1.4,0.005,-1516
1.4,0.15375,-1432
1.4,0.0075,-1436
1.4,0.015,-1428
1.4,0.0675,-1396
1.4,0.0025,-1536
1.4,0.12625,-1432
1.4,0.1,-1352
1.4,0.08625,-1352
1.4,0.0025,-1276
1.4,0.1075,-1416
1.4,0.06125,-1624
1.4,0.06,-1392
1.4,0.0625,-1464
1.4,0.08375,-1504
1.4,0.0175,-1328
1.4,0.075,-1440
1.4,0.0225,-1364
1.4,0.12625,-1548
1.4,0.21,-1560
1.4,0.00375,-1248
1.4,0.07625,-1516
1.4,0.025,-1308
1.4,0.05625,-1432
1.4,0.035,-1432
1.4,0.255,-1564
1.4,0.04125,-1480
1.4,0.08375,-1524
1.4,0.145,-1500
1.4,0.15625,-1332
1.4,0.03375,-1492
1.4,0.09125,-1476
1.4,0.2725,-1536
1.4,0.06375,-1516
1.4,0.0825,-1488
1.4,0.075,-1428
1.4,0.0025,-1564
1.4,0.0375,-1392
1.4,0.0125,-1436
1.4,0.06,-1468
1.4,0.01,-1400
1.4,0.05625,-1344
1.4,0.05,-1436
1.4,0.07625,-1596
1.4,0.1975,-1552
1.4,0.03125,-1428
1.4,0.1825,-1548
1.4,0.18,-1656
1.4,0.0475,-1432
1.4,0.0625,-1352
1.4,0.09625,-1376
1.4,0.0375,-1452
1.4,0.02,-1520
1.4,0.05125,-1368
1.4,0.0925,-1456
1.4,0.21125,-1580
1.4,0.07375,-1348
1.4,0.3325,-1644
1.4,0.18,-1368
1.4,0.0525,-1516
1.4,0.13125,-1292
1.4,0.15375,-1436
1.4,0.065,-1536
1.4,0.1525,-1404
1.4,0.07,-1516
1.4,0.0275,-1288
1.4,0.11125,-1428
1.4,0.06625,-1396
1.4,0.02625,-1488
1.4,0.12875,-1428
1.4,0.10375,-1412
1.4,0.1025,-1440
1.4,0.05375,-1308
1.4,0.01,-1616
1.4,0.22375,-1508
1.4,0.01125,-1436
1.4,0.1575,-1524
1.4,0.0925,-1368
1.4,0.015,-1380
1.4,0.0775,-1548
1.4,0.12375,-1444
1.4,0.1,-1452
1.4,0.10625,-1392
1.4,0.1125,-1444
1.4,0.01625,-1412
1.4,0.1075,-1348
1.4,0.08125,-1392
1.4,0.0725,-1340
1.4,0,-1492
1.4,0.09625,-1448
1.4,0.0025,-1264
1.4,0.11125,-1500
1.4,0.13625,-1416
1.4,0.0825,-1484
1.4,0.035,-1324
1.4,0.02875,-1360
1.4,0.22125,-1468
1.4,0.04125,-1584
1.4,0.1075,-1404
1.4,0.03375,-1428
1.4,0.0625,-1384
1.4,0.015,-1376
1.4,0.00375,-1436
1.4,0.0225,-1524
1.4,0.0925,-1584
1.4,0.13,-1412
1.4,0.02875,-1488
1.4,0.19,-1484
1.4,0.0275,-1476
1.4,0.09125,-1408
1.4,0.0825,-1332
1.4,0.1225,-1312
1.4,0.0825,-1560
1.4,0.1375,-1380
1.4,0.1275,-1520
1.4,0.0375,-1360
1.4,0.03375,-1508
1.4,0.09125,-1508
1.4,0.1025,-1412
1.4,0.0275,-1592
1.4,0.16,-1404
1.4,0.13625,-1520
1.4,0.265,-1492
1.4,0.06,-1320
1.4,0.04375,-1316
1.4,0.1425,-1440
1.4,0.00625,-1572
1.4,0.075,-1416
1.4,0.03875,-1456
1.4,0.0325,-1516
1.4,0.1025,-1464
1.4,0.0325,-1368
1.4,0.07625,-1392
1.4,0.11375,-1536
1.4,0.025,-1408
1.4,0.005,-1500
1.4,0.1525,-1596
1.4,0.00125,-1336
1.4,0.155,-1448
1.4,0.07,-1588
1.4,0.15875,-1500
1.4,0.17375,-1476
1.4,0.11375,-1492
1.4,0.1,-1508
1.4,0.16125,-1436
1.4,0.0425,-1388
1.4,0.03125,-1512
1.4,0.0125,-1424
1.4,0.1525,-1360
1.4,0.02,-1484
1.4,0.02875,-1292
1.4,0.09375,-1492
1.4,0.0275,-1552
1.4,0.005,-1520
1.4,0.03625,-1576
1.4,0.11625,-1476
1.4,0.04875,-1376
1.4,0.12375,-1216
1.4,0.02125,-1392
1.4,0.015,-1424
1.4,0.11375,-1432
1.4,0.19125,-1408
1.4,0.06125,-1472
1.4,0.0425,-1448
1.4,0.1625,-1392
1.4,0.02625,-1280
1.4,0.2275,-1520
1.4,0.11375,-1388
1.4,0.03875,-1320
1.4,0.0825,-1572
1.4,0.05625,-1528
1.4,0.01875,-1492
1.4,0.14625,-1596
1.4,0.065,-1468
1.4,0.145,-1572
1.4,0.00375,-1384
1.4,0.07,-1424
1.4,0.0275,-1420
1.4,0.13625,-1472
1.4,0.15625,-1572
1.4,0.08875,-1460
1.4,0.04,-1476
1.4,0.11125,-1352
1.4,0.24,-1372
1.4,0.1,-1588
1.4,0.08625,-1504
1.4,0.1,-1456
1.4,0.1875,-1452
1.4,0.11125,-1428
1.4,0.03375,-1428
1.4,0.0175,-1384
1.4,0.0525,-1532
1.4,0.03875,-1416
1.4,0.055,-1396
1.4,0.18875,-1492
1.4,0.0975,-1412
1.4,0.01625,-1360
1.4,0.01625,-1468
1.4,0.21875,-1460
1.4,0.02625,-1424
1.4,0.00125,-1372
1.4,0.12875,-1344
1.4,0.00375,-1468
1.4,0.045,-1324
1.4,0.0325,-1500
1.4,0.0225,-1440
1.4,0.17875,-1364
1.4,0.22125,-1572
1.4,0.0975,-1512
1.4,0.07625,-1412
1.4,0.07375,-1504
1.4,0.1725,-1500
1.4,0.015,-1400
1.4,0.12875,-1500
1.4,0.0025,-1464
1.4,0.13125,-1396
1.4,0.125,-1388
1.4,0.00875,-1316
1.4,0.0625,-1536
1.4,0.04375,-1384
1.4,0.0375,-1532
1.4,0.05375,-1416
1.4,0.15,-1472
1.4,0.01375,-1524
1.4,0.08375,-1444
1.4,0.0275,-1384
1.4,0.155,-1436
1.4,0.0775,-1332
1.4,0.0125,-1432
1.4,0.0275,-1476
1.4,0.02125,-1496
1.4,0.04,-1540
1.4,0.0375,-1440
1.4,0.06625,-1580
1.4,0.13375,-1468
1.4,0.13,-1380
1.4,0.02,-1420
1.4,0.065,-1420
1.4,0.09875,-1448
1.4,0.0875,-1380
1.4,0.15625,-1392
1.4,0.12375,-1504
1.4,0.06125,-1576
1.4,0.00125,-1472
1.4,0.0425,-1288
1.4,0.00625,-1360
1.4,0.08375,-1428
1.4,0.15125,-1468
1.4,0.05,-1396
1.4,0.095,-1556
1.4,0.07,-1240
1.4,0.22,-1468
1.4,0.1475,-1472
1.4,0.03625,-1460
1.4,0.03375,-1416
1.4,0.07,-1480
1.4,0.08625,-1472
1.4,0.04125,-1316
1.4,0.03875,-1580
1.4,0.055,-1592
1.4,0.02875,-1404
1.4,0.3125,-1784
1.4,0.10625,-1480
1.4,0.14,-1356
1.4,0.04375,-1476
1.4,0.12375,-1256
1.4,0.1425,-1368
1.4,0.0275,-1432
1.4,0.0925,-1496
1.4,0.005,-1600
1.4,0.0575,-1488
1.4,0.0075,-1420
1.4,0.12125,-1464
1.4,0.16625,-1428
1.4,0.1675,-1420
1.4,0.0675,-1396
1.4,0.1125,-1372
1.4,0.04375,-1520
1.4,0.18375,-1404
1.4,0.04,-1368
1.4,0.03125,-1592
1.4,0.00125,-1404
1.4,0.06125,-1424
1.4,0.13125,-1420
1.4,0.00125,-1500
1.4,0.0575,-1528
1.4,0.13375,-1568
1.4,0.10875,-1600
1.4,0.15125,-1352
1.4,0.02375,-1492
1.4,0.15625,-1472
1.4,0.0825,-1520
1.4,0.00625,-1400
1.4,0.0475,-1368
1.4,0.00625,-1568
1.4,0.14375,-1544
1.4,0.02625,-1408
1.4,0.23125,-1480
1.4,0.0575,-1508
1.4,0.005,-1540
1.4,0.145,-1428
1.4,0.03375,-1492
1.4,0.20625,-1500
1.4,0.08,-1380
1.4,0.03,-1232
1.4,0.16875,-1460
1.4,0.13375,-1484
1.4,0.1475,-1492
1.4,0.14875,-1332
1.4,0.07875,-1428
1.4,0.12125,-1608
1.4,0.12375,-1480
1.4,0.1625,-1540
1.4,0.0275,-1404
1.4,0.095,-1564
1.4,0.03875,-1252
1.4,0.2075,-1480
1.4,0,-1332
1.4,0.01,-1400
1.4,0.0725,-1504
1.4,0.03375,-1432
1.4,0.16875,-1388
1.4,0.16875,-1456
1.4,0.09625,-1372
1.4,0.20375,-1544
1.4,0.06875,-1420
1.4,0.06125,-1404
1.4,0.0075,-1456
1.4,0.09375,-1504
1.4,0.02375,-1524
1.4,0.07,-1636
1.4,0.05375,-1412
1.4,0.12875,-1416
1.4,0.035,-1428
1.4,0.06625,-1356
1.4,0.02875,-1360
1.4,0.05875,-1624
1.4,0.05625,-1412
1.4,0.15375,-1440
1.4,0.16125,-1516
1.4,0.1525,-1476
1.4,0.1975,-1320
1.4,0.12625,-1492
1.4,0.06375,-1452
1.4,0.04375,-1272
1.4,0.06625,-1576
1.4,0.2975,-1632
1.4,0.00125,-1388
1.4,0.10375,-1480
1.4,0.0075,-1528
1.4,0.0425,-1424
1.4,0.13,-1436
1.4,0.1075,-1416
1.4,0.15625,-1456
1.4,0.1075,-1508
1.4,0.0725,-1484
1.4,0.18,-1416
1.4,0.04625,-1596
1.4,0.0225,-1412
1.4,0.24375,-1496
1.4,0.10625,-1472
1.4,0.19,-1380
1.4,0.0575,-1312
1.4,0.04,-1336
1.4,0.0025,-1444
1.4,0.01125,-1524
1.4,0.03125,-1500
1.4,0.1925,-1444
1.4,0.09625,-1472
1.4,0.165,-1324
1.4,0.13375,-1608
1.4,0.0725,-1600
1.4,0.025,-1504
1.4,0.13375,-1480
1.4,0.09875,-1376
1.4,0.05625,-1492
1.4,0.1375,-1388
1.4,0.00625,-1564
1.4,0.1225,-1436
1.4,0.0625,-1452
1.4,0.05,-1492
1.4,0.135,-1420
1.4,0.1,-1496
1.4,0.08625,-1428
1.4,0.0625,-1324
1.4,0.10375,-1324
1.4,0.11125,-1508
1.4,0.00375,-1296
1.4,0.10625,-1384
1.4,0.0175,-1428
1.4,0.14875,-1404
1.4,0.11875,-1420
1.4,0.02375,-1516
1.4,0.11375,-1368
1.4,0.06625,-1320
1.4,0.11875,-1460
1.4,0.02625,-1356
1.4,0.00125,-1332
1.4,0.24875,-1520
1.4,0.13125,-1552
1.4,0.1175,-1468
1.4,0.06375,-1480
1.4,0.0625,-1388
1.4,0.0375,-1344
1.4,0.0125,-1424
1.4,0.18625,-1432
1.4,0.02375,-1364
1.4,0.07375,-1384
1.4,0.095,-1348
1.4,0.04125,-1428
1.4,0.02375,-1416
1.4,0.04625,-1380
1.4,0.1175,-1436
1.4,0.06,-1392
1.4,0.1625,-1532
1.4,0.11125,-1300
1.4,0.21625,-1412
1.4,0.01625,-1420
1.4,0.17,-1420
1.4,0.0275,-1500
1.4,0.11125,-1624
1.4,0.07,-1420
1.4,0.0875,-1312
1.4,0.16625,-1440
1.4,0.01,-1388
1.4,0.035,-1320
1.4,0.02625,-1472
1.4,0.295,-1612
1.4,0.0125,-1548
1.4,0.1475,-1524
1.4,0.065,-1440
1.4,0.0025,-1500
1.4,0.07,-1280
1.4,0.0825,-1400
1.4,0.0475,-1468
1.4,0.025,-1420
1.4,0.08125,-1384
1.4,0.00625,-1452
1.4,0.04625,-1512
1.4,0.01625,-1424
1.4,0.06,-1436
1.4,0.14375,-1524
1.4,0.06625,-1392
1.4,0.11625,-1484
1.4,0.03125,-1336
1.4,0.07375,-1456
1.4,0.20375,-1496
1.4,0.08125,-1484
1.4,0.0675,-1436
1.4,0.14,-1440
1.4,0.06875,-1392
1.4,0.01125,-1476
1.4,0.0075,-1460
1.4,0.04625,-1404
1.4,0.0175,-1384
1.4,0.0625,-1372
1.4,0.03875,-1396
1.4,0.0675,-1488
1.4,0.02875,-1412
1.4,0.22875,-1396
1.4,0.13125,-1568
1.4,0.0025,-1436
1.4,0.07,-1396
1.4,0.04125,-1432
1.4,0.21875,-1572
1.4,0.05625,-1332
1.4,0.05,-1476
1.4,0.13375,-1448
1.4,0.16875,-1360
1.4,0.035,-1528
1.4,0.0725,-1532
1.4,0.1625,-1460
1.4,0.055,-1384
1.4,0.10375,-1488
1.4,0.0375,-1452
1.4,0.075,-1564
1.4,0,-1420
1.4,0.00125,-1340
1.4,0.05375,-1360
1.4,0.06875,-1508
1.4,0.12875,-1492
1.4,0.02875,-1460
1.4,0.04375,-1448
1.4,0.08375,-1476
1.4,0.0525,-1356
1.4,0.02,-1488
1.4,0.0075,-1412
1.4,0.09625,-1344
1.4,0.12,-1324
1.4,0.025,-1468
1.4,0.00125,-1456
1.4,0.15625,-1568
1.4,0.12375,-1496
1.4,0.13625,-1484
1.4,0.0075,-1340
1.4,0.1,-1580
1.4,0.08875,-1484
1.4,0.03625,-1440
1.4,0.165,-1596
1.4,0.065,-1588
1.4,0.08375,-1524
1.4,0.12375,-1548
1.4,0.0575,-1388
1.4,0.03625,-1428
1.4,0.03375,-1368
1.4,0.0075,-1360
1.4,0.09375,-1376
1.4,0.09125,-1440
1.4,0.055,-1356
1.4,0.3025,-1596
1.4,0.17625,-1520
1.4,0.12375,-1556
1.4,0.11125,-1344
1.4,0.02375,-1404
1.4,0.00875,-1516
1.4,0.08375,-1324
1.4,0.00125,-1388
1.4,0.17875,-1420
1.4,0.11375,-1392
1.4,0.05,-1476
1.4,0.07625,-1484
1.4,0.00875,-1408
1.4,0.0725,-1500
1.4,0.06,-1532
1.4,0.03125,-1440
1.4,0.01625,-1320
1.4,0.08375,-1320
1.4,0.11625,-1460
1.4,0.16875,-1360
1.4,0.02,-1500
1.4,0.02375,-1344
1.4,0.02375,-1364
1.4,0.31,-1532
1.4,0.04375,-1468
1.4,0.14625,-1420
1.4,0.1725,-1460
1.4,0.06875,-1488
1.4,0.2025,-1564
1.4,0.355,-1516
1.4,0.1375,-1244
1.4,0.00125,-1512
1.4,0.0075,-1568
1.4,0.02125,-1452
1.4,0.11875,-1376
1.4,0.01,-1544
1.4,0.1425,-1472
1.4,0.03375,-1384
1.4,0.0775,-1404
1.4,0.03625,-1300
1.4,0.03875,-1424
1.4,0.035,-1416
1.4,0.00125,-1400
1.4,0.07875,-1488
1.4,0.0075,-1268
1.4,0.025,-1504
1.4,0.0875,-1592
1.4,0.04125,-1364
1.4,0.0675,-1476
1.4,0.00375,-1508
1.4,0.01375,-1456
1.4,0.1275,-1480
1.4,0.06125,-1484
1.4,0.03625,-1376
1.4,0.05,-1552
1.4,0.08875,-1380
1.4,0.0375,-1384
1.4,0.1975,-1424
1.4,0.08375,-1420
1.4,0.01,-1504
1.4,0.09125,-1388
1.4,0.08375,-1484
1.4,0.0925,-1392
1.4,0.05375,-1300
1.4,0.20625,-1320
1.4,0.0775,-1560
1.4,0.065,-1248
1.4,0.2275,-1592
1.4,0.1025,-1376
1.4,0.10375,-1332
1.4,0.095,-1596
1.4,0.0575,-1352
1.4,0.005,-1512
1.4,0.0425,-1512
1.4,0.04625,-1332
1.4,0.01875,-1388
1.4,0.10875,-1448
1.4,0.02125,-1360
1.4,0.095,-1472
1.4,0.1625,-1396
1.4,0.22,-1388
1.4,0.0325,-1392
1.4,0.02625,-1404
1.4,0.1825,-1508
1.4,0.0725,-1632
1.4,0.04125,-1396
1.4,0.0075,-1600
1.4,0.01375,-1436
1.4,0.30875,-1552
1.4,0.05875,-1604
1.4,0.005,-1360
1.4,0.09125,-1460
1.4,0.13875,-1504
1.4,0.08,-1472
1.4,0.0075,-1368
1.4,0.0525,-1376
1.4,0,-1576
1.4,0.14875,-1504
1.4,0.1075,-1352
1.4,0.05375,-1464
1.4,0.1375,-1408
1.4,0.08375,-1468
1.4,0.20375,-1532
1.4,0.09,-1380
1.4,0.00625,-1300
1.4,0.095,-1484
1.4,0.055,-1568
1.4,0.05625,-1568
1.4,0.145,-1440
1.4,0.16125,-1420
1.4,0.2125,-1580
1.4,0.02125,-1560
1.4,0.02125,-1424
1.4,0.17625,-1500
1.4,0.025,-1508
1.4,0.14625,-1476
1.4,0.1375,-1536
1.4,0.1525,-1556
1.4,0.3975,-1648
1.4,0.23375,-1588
1.4,0.08375,-1408
1.4,0.1625,-1492
1.4,0.0175,-1500
1.4,0.05375,-1328
1.4,0.02,-1316
1.4,0.0875,-1548
1.4,0.01875,-1448
1.4,0.1125,-1404
1.4,0.0975,-1384
1.4,0.05,-1520
1.4,0.2225,-1444
1.4,0.02375,-1432
1.4,0.06,-1480
1.4,0.04875,-1352
1.4,0.075,-1444
1.4,0.195,-1516
1.4,0.1225,-1448
1.4,0.00125,-1420
1.4,0.07125,-1412
1.4,0.0325,-1472
1.4,0.02875,-1628
1.4,0.02,-1552
1.4,0.005,-1436
1.4,0.04625,-1576
1.4,0.04625,-1504
1.4,0.195,-1424
1.4,0.09875,-1404
1.4,0.075,-1412
1.4,0.09875,-1356
1.4,0.00125,-1392
1.4,0.13,-1448
1.4,0.0175,-1504
1.4,0.1425,-1464
1.4,0.09375,-1444
1.4,0.03875,-1332
1.4,0.01875,-1316
1.4,0.015,-1448
1.4,0.10125,-1548
1.4,0.09625,-1468
1.4,0.03875,-1424
1.4,0.09875,-1396
1.4,0.015,-1572
1.4,0.14125,-1388
1.4,0.04,-1528
1.4,0.09125,-1428
1.4,0.1475,-1456
1.4,0.03375,-1508
1.4,0.22125,-1464
1.4,0.0225,-1476
1.4,0.15125,-1408
1.4,0.06375,-1428
1.4,0.17125,-1500
1.4,0.10125,-1444
1.4,0.04875,-1520
1.4,0.01125,-1264
1.4,0.11,-1496
1.4,0.1025,-1472
1.4,0.07375,-1412
1.4,0.06,-1384
1.4,0.11375,-1516
1.4,0.07375,-1556
1.4,0.07375,-1352
1.4,0.18875,-1464
1.4,0.05125,-1420
1.4,0.0325,-1440
1.4,0.04625,-1408
1.4,0.0375,-1316
1.4,0.05125,-1376
1.4,0.0775,-1448
1.4,0.15125,-1524
1.4,0.0125,-1380
1.4,0.1575,-1368
1.4,0.09875,-1396
1.4,0.13875,-1368
1.4,0.115,-1484
1.4,0.11125,-1508
1.4,0.08,-1552
1.4,0.05125,-1320
1.4,0.17375,-1540
1.4,0.215,-1560
1.4,0.055,-1440
1.4,0.03375,-1264
1.4,0.06625,-1496
1.4,0.08625,-1544
1.4,0.0775,-1380
1.4,0.0225,-1264
1.4,0.1125,-1400
1.4,0.105,-1476
1.4,0.08375,-1516
1.4,0.0575,-1376
1.4,0.00875,-1472
1.4,0.18,-1448
1.4,0.0075,-1332
1.4,0.1025,-1464
1.4,0.01375,-1600
1.4,0.23,-1552
1.4,0.025,-1352
1.4,0.09875,-1420
1.4,0.0575,-1312
1.4,0.12125,-1584
1.4,0.00875,-1364
1.4,0.00625,-1484
1.4,0.0175,-1524
1.4,0.10125,-1532
1.4,0.0175,-1472
1.4,0.17375,-1476
1.4,0.0025,-1536
1.4,0.00875,-1564
1.4,0.075,-1408
1.4,0.21875,-1520
1.4,0.05875,-1340
1.4,0.07625,-1360
1.4,0.03625,-1304
1.4,0.07375,-1624
1.4,0.02375,-1360
1.4,0.235,-1560
1.4,0.05125,-1456
1.4,0.13375,-1432
1.4,0.09125,-1552
1.4,0.155,-1400
1.4,0.0625,-1440
1.4,0.18125,-1468
1.4,0.08875,-1392
1.4,0.04125,-1392
1.4,0.1875,-1500
1.4,0.08375,-1356
1.4,0.0025,-1380
1.4,0.02125,-1516
1.4,0.06,-1396
1.4,0.275,-1376
1.4,0.03125,-1564
1.4,0.0325,-1376
1.4,0.0025,-1496
1.4,0.085,-1284
1.4,0.18,-1364
1.4,0.0625,-1456
1.4,0.0225,-1580
1.4,0.12,-1364
1.4,0.02125,-1400
1.4,0.0325,-1444
1.4,0.17875,-1544
1.4,0.10375,-1364
1.4,0.0675,-1468
1.4,0.2775,-1536
1.4,0.07125,-1392
1.4,0.05625,-1532
1.4,0.10875,-1552
1.4,0.0525,-1480
1.4,0.095,-1380
1.4,0.08375,-1416
1.4,0.01125,-1332
1.4,0.03625,-1392
1.4,0.1775,-1520
1.4,0.015,-1520
1.4,0.1025,-1384
1.4,0.07,-1396
1.4,0.03375,-1480
1.4,0.03125,-1392
1.4,0.0225,-1432
1.4,0.015,-1484
1.4,0.0175,-1448
1.4,0.03625,-1476
1.4,0.02,-1496
1.4,0.04125,-1544
1.4,0.01125,-1344
1.4,0.03625,-1288
1.4,0.16125,-1356
1.4,0.055,-1424
1.4,0.025,-1584
1.4,0.0375,-1584
1.4,0.005,-1444
1.4,0.05375,-1380
1.4,0.02,-1428
1.4,0.0175,-1432
1.4,0.00875,-1352
1.4,0.06375,-1380
1.4,0.015,-1452
1.4,0.0875,-1408
1.4,0.14,-1444
1.4,0.2075,-1568
1.4,0.0475,-1492
1.4,0.08,-1312
1.4,0.03125,-1524
1.4,0.0825,-1344
1.4,0.11,-1468
1.4,0.08625,-1244
1.4,0.0875,-1528
1.4,0.135,-1604
1.4,0.08125,-1472
1.4,0.0275,-1628
1.4,0.14625,-1516
1.4,0.1,-1452
1.4,0.1925,-1500
1.4,0.03125,-1336
1.4,0.10875,-1416
1.4,0.14,-1400
1.4,0.04625,-1400
1.4,0.00125,-1292
1.4,0.12375,-1476
1.4,0.1275,-1360
1.4,0.04625,-1436
1.4,0.125,-1644
1.4,0.1,-1436
1.4,0.1775,-1472
1.4,0.01375,-1532
1.4,0.08,-1376
1.4,0.07375,-1532
1.4,0.10375,-1584
1.4,0.09875,-1520
1.4,0.015,-1428
1.4,0.055,-1436
1.4,0.10375,-1532
1.4,0.03375,-1496
1.4,0.0075,-1284
1.4,0.14625,-1392
1.4,0.1075,-1500
1.4,0.0325,-1384
1.4,0.11375,-1340
1.4,0.0675,-1532
1.4,0.0375,-1492
1.4,0.0175,-1396
1.4,0.15375,-1436
1.4,0.02625,-1484
1.4,0.05,-1508
1.4,0.16,-1516
1.4,0.0225,-1356
1.4,0.185,-1528
1.4,0.0225,-1416
1.4,0.06,-1424
1.4,0.09125,-1448
1.4,0.02375,-1432
1.4,0.2275,-1388
1.4,0.17875,-1384
1.4,0.0575,-1508
1.4,0.09375,-1448
1.4,0.1225,-1428
1.4,0.08625,-1424
1.4,0.14625,-1536
1.4,0.14625,-1552
1.4,0.0125,-1456
1.4,0.1625,-1432
1.4,0.00375,-1384
1.4,0.02125,-1448
1.4,0.00875,-1444
1.4,0.05125,-1532
1.4,0.20625,-1496
1.4,0.04125,-1384
1.4,0.01375,-1408
1.4,0.04125,-1388
1.4,0.21375,-1492
1.4,0,-1380
1.4,0.0825,-1392
1.4,0.14625,-1552
1.4,0.06125,-1360
1.4,0.00125,-1208
1.4,0.0625,-1552
1.4,0.1675,-1432
1.4,0.03625,-1504
1.4,0.14875,-1452
1.4,0.12375,-1440
1.4,0.01125,-1280
1.4,0.11625,-1504
1.4,0.04625,-1500
1.4,0.06,-1404
1.4,0.1525,-1456
1.4,0.0225,-1412
1.4,0.07375,-1364
1.4,0.1975,-1540
1.4,0.06125,-1436
1.4,0.00125,-1456
1.4,0.145,-1428
1.4,0.06,-1484
1.4,0.04125,-1456
1.4,0.10875,-1556
1.4,0.1,-1436
1.4,0.125,-1548
1.4,0.0875,-1500
1.4,0.0125,-1476
1.4,0.17125,-1596
1.4,0.045,-1420
1.4,0.11375,-1452
1.4,0.12,-1416
1.4,0.17,-1668
1.4,0.1025,-1596
1.4,0.03625,-1488
1.4,0.005,-1476
1.4,0.15125,-1536
1.4,0.07625,-1452
1.4,0.04875,-1428
1.4,0.1325,-1632
1.4,0.01875,-1472
1.4,0.15125,-1416
1.4,0.00875,-1488
1.4,0.09375,-1272
1.4,0.09,-1456
1.4,0.1075,-1620
1.4,0.07,-1360
1.4,0.06375,-1472
1.4,0.07,-1576
1.4,0.14375,-1704
1.4,0.07125,-1476
1.4,0.055,-1596
1.4,0.0725,-1460
1.4,0.04875,-1456
1.4,0.06625,-1416
1.4,0.06,-1464
1.4,0.04125,-1532
1.4,0.01625,-1476
1.4,0.04,-1320
1.4,0.10125,-1452
1.4,0.07375,-1520
1.4,0.06375,-1492
1.4,0.02625,-1428
1.4,0.09375,-1552
1.4,0.03,-1436
1.4,0.1575,-1520
1.4,0.23125,-1464
1.4,0.06375,-1388
1.4,0.11625,-1492
1.4,0.035,-1632
1.4,0.015,-1404
1.4,0.02125,-1256
1.4,0.0125,-1420
1.4,0.0625,-1484
1.4,0.0175,-1436
1.4,0.23375,-1408
1.4,0.02875,-1520
1.4,0.04,-1368
1.4,0.00875,-1516
1.4,0.02125,-1380
1.4,0.05375,-1316
1.4,0.00375,-1392
1.4,0.00875,-1428
1.4,0.0125,-1468
1.4,0.03875,-1288
1.4,0.08625,-1540
1.4,0.09625,-1404
1.4,0.035,-1476
1.4,0.16125,-1408
1.4,0.0175,-1396
1.4,0.09625,-1452
1.4,0.0425,-1392
1.4,0.01125,-1392
1.4,0.23375,-1636
1.4,0.01625,-1380
1.4,0.0475,-1504
1.4,0.09875,-1440
1.4,0.06625,-1348
1.4,0.09875,-1372
1.4,0.0425,-1408
1.4,0.03125,-1444
1.4,0.005,-1536
1.4,0.08125,-1384
1.4,0.0525,-1416
1.4,0.0775,-1344
1.4,0.08625,-1352
1.4,0.0975,-1440
1.4,0.12125,-1408
1.4,0.17625,-1548
1.4,0.0675,-1308
1.4,0.0225,-1500
1.4,0.26625,-1588
1.4,0.13875,-1456
1.4,0.06875,-1496
1.4,0.0025,-1484
1.4,0.05125,-1572
1.4,0.05375,-1524
1.4,0.0475,-1144
1.4,0.12625,-1424
1.4,0.09,-1488
1.4,0.08125,-1500
1.4,0.00875,-1540
1.4,0.125,-1544
1.4,0.015,-1436
1.4,0.14125,-1344
1.4,0.205,-1640
1.4,0.08625,-1392
1.4,0.0975,-1576
1.4,0.035,-1496
1.4,0.02625,-1612
1.4,0.18625,-1564
1.4,0.015,-1512
1.4,0.0975,-1516
1.4,0.05375,-1404
1.4,0.03625,-1444
1.4,0.05875,-1476
1.4,0.06125,-1376
1.4,0.0425,-1324
1.4,0.00625,-1512
1.4,0.0225,-1456
1.4,0.0325,-1424
1.4,0.1475,-1592
1.4,0.055,-1472
1.4,0.0525,-1380
1.4,0.05375,-1376
1.4,0.01875,-1436
1.4,0.035,-1640
1.4,0.03375,-1392
1.4,0.03125,-1376
1.4,0.20125,-1460
1.4,0.25875,-1532
1.4,0.15,-1440
1.4,0.00125,-1408
1.4,0.04375,-1420
1.4,0.055,-1320
1.4,0.02,-1444
1.4,0.23625,-1520
1.4,0.0425,-1408
1.4,0.06875,-1572
1.4,0.00375,-1500
1.4,0.02375,-1480
1.4,0.1575,-1428
1.4,0.08375,-1380
1.4,0.055,-1436
1.4,0.07875,-1496
1.4,0.06375,-1592
1.4,0.215,-1500
1.4,0.18875,-1592
1.4,0.06875,-1428
1.4,0.035,-1344
1.4,0.0775,-1404
1.4,0.03,-1496
1.4,0.12375,-1372
1.4,0.0675,-1404
1.4,0.09125,-1412
1.4,0.17125,-1520
1.4,0.23375,-1440
1.4,0.07,-1380
1.4,0.13625,-1348
1.4,0.06125,-1476
1.4,0.125,-1468
1.4,0.115,-1524
1.4,0.16875,-1468
1.4,0.01875,-1468
1.4,0.15375,-1424
1.4,0.125,-1596
1.4,0.06375,-1364
1.4,0.07375,-1508
1.4,0.06125,-1464
1.4,0.15375,-1456
1.4,0.105,-1392
1.4,0.1225,-1560
1.4,0.01875,-1448
1.4,0,-1508
1.4,0.0875,-1536
1.4,0.0075,-1448
1.4,0.0925,-1420
1.4,0.0875,-1424
1.4,0.08375,-1468
1.4,0.20375,-1452
1.4,0.0725,-1524
1.4,0.1475,-1508
1.4,0.09625,-1360
1.4,0.11875,-1392
1.4,0.16625,-1532
1.4,0.07375,-1408
1.4,0.155,-1488
1.4,0.11875,-1380
1.4,0.05375,-1368
1.4,0.05125,-1468
1.4,0.12625,-1452
1.4,0.1075,-1484
1.4,0.18,-1440
1.4,0.07,-1540
1.4,0.03875,-1456
1.4,0.11875,-1396
1.4,0.02,-1528
1.4,0.11625,-1460
1.4,0.04125,-1400
1.4,0.07625,-1488
1.4,0.0375,-1540
1.4,0.0375,-1364
1.4,0.0075,-1468
1.4,0.16375,-1436
1.4,0.06125,-1336
1.4,0.11625,-1592
1.4,0.185,-1484
1.4,0.0925,-1372
1.4,0.01875,-1440
1.4,0.10375,-1416
1.4,0.115,-1596
1.4,0.17,-1428
1.4,0.00875,-1440
1.4,0.00875,-1536
1.4,0.10375,-1560
1.4,0.10875,-1408
1.4,0.0025,-1460
1.4,0.155,-1468
1.4,0.05375,-1424
1.4,0.01625,-1316
1.4,0.0775,-1484
1.4,0.0675,-1524
1.4,0.0325,-1436
1.4,0.21125,-1636
1.4,0.15375,-1604
1.4,0.1925,-1380
1.4,0.0425,-1284
1.4,0.055,-1484
1.4,0.12125,-1592
1.4,0.2425,-1472
1.4,0.035,-1452
1.4,0.12125,-1320
1.4,0.145,-1404
1.4,0.17125,-1432
1.4,0.08625,-1428
1.4,0.07625,-1464
1.4,0.00625,-1356
1.4,0.09125,-1408
1.4,0.09375,-1532
1.4,0.075,-1516
1.4,0.02,-1412
1.4,0.16,-1352
1.4,0.08875,-1484
1.4,0.10125,-1468
1.4,0.155,-1536
1.4,0.155,-1480
1.4,0.14,-1404
1.4,0.065,-1360
1.4,0.03,-1500
1.4,0.04,-1364
1.4,0.025,-1396
1.4,0.06375,-1564
1.4,0.07875,-1424
1.4,0.0325,-1432
1.4,0.10375,-1364
1.4,0.0025,-1392
1.4,0.12375,-1416
1.4,0.1375,-1356
1.4,0.1425,-1408
1.4,0.0425,-1320
1.4,0.06375,-1420
1.4,0.17,-1460
1.4,0.1125,-1476
1.4,0.01625,-1276
1.4,0.2275,-1492
1.4,0.10125,-1504
1.4,0.07875,-1512
1.4,0.07625,-1472
1.4,0.03375,-1492
1.4,0.09875,-1536
1.4,0.1875,-1604
1.4,0.10375,-1384
1.4,0.0425,-1488
1.4,0.0625,-1512
1.4,0.12,-1536
1.4,0.0825,-1372
1.4,0.1925,-1472
1.4,0.07125,-1332
1.4,0.03875,-1416
1.4,0.135,-1392
1.4,0.045,-1388
1.4,0.00875,-1504
1.4,0.06,-1572
1.4,0.1025,-1448
1.4,0.0925,-1340
1.4,0.0325,-1428
1.4,0.0975,-1476
1.4,0.03875,-1524
1.4,0.0875,-1364
1.4,0.075,-1328
1.4,0.05875,-1444
1.4,0.1925,-1416
1.4,0.10625,-1364
1.4,0.0075,-1352
1.4,0.3225,-1644
1.4,0.07375,-1336
1.4,0.09,-1324
1.4,0.01,-1332
1.4,0.13,-1524
1.4,0.235,-1508
1.4,0,-1560
1.4,0.07875,-1492
1.4,0.11125,-1476
1.4,0.0925,-1436
1.4,0.04625,-1504
1.4,0.03625,-1384
1.4,0.255,-1608
1.4,0.02375,-1556
1.4,0.06,-1552
1.4,0.1275,-1400
1.4,0.07125,-1432
1.4,0.04875,-1448
1.4,0.08125,-1604
1.4,0.1475,-1484
1.4,0.04375,-1504
1.4,0.04625,-1400
1.4,0.00125,-1480
1.4,0.08625,-1388
1.4,0.08,-1432
1.4,0.0525,-1528
1.4,0.0475,-1412
1.4,0.1875,-1584
1.4,0.02625,-1372
1.4,0.02875,-1436
1.4,0.0875,-1496
1.4,0.16625,-1564
1.4,0.03875,-1392
1.4,0.125,-1468
1.4,0.03125,-1288
1.4,0.04125,-1424
1.4,0.09,-1560
1.4,0.065,-1404
1.4,0.06375,-1392
1.4,0.01125,-1336
1.4,0.1725,-1372
1.4,0.1275,-1448
1.4,0.11625,-1452
1.4,0.04125,-1508
1.4,0.075,-1420
1.4,0.04875,-1400
1.4,0.12375,-1420
1.4,0.0575,-1520
1.4,0.095,-1616
1.4,0.0375,-1288
1.4,0.135,-1388
1.4,0.03375,-1432
1.4,0.16875,-1528
1.4,0.0175,-1484
1.4,0.14,-1444
1.4,0.01,-1416
1.4,0.105,-1392
1.4,0.0025,-1440
1.4,0.22,-1520
1.4,0.0375,-1436
1.4,0.02875,-1480
1.4,0.01625,-1452
1.4,0.0225,-1444
1.4,0.2425,-1504
1.4,0.07375,-1360
1.4,0.07375,-1468
1.4,0.085,-1340
1.4,0.00625,-1292
1.4,0.1275,-1388
1.4,0.0575,-1352
1.4,0.03125,-1460
1.4,0.05625,-1388
1.4,0.12125,-1380
1.4,0.10875,-1588
1.4,0.04875,-1512
1.4,0.19875,-1392
1.4,0.0525,-1532
1.4,0.01,-1532
1.4,0.14625,-1584
1.4,0.00625,-1448
1.4,0.03875,-1552
1.4,0.04,-1368
1.4,0.0325,-1540
1.4,0.01375,-1380
1.4,0.21375,-1516
1.4,0.02375,-1404
1.4,0.045,-1428
1.4,0.0625,-1476
1.4,0.15375,-1584
1.4,0.0125,-1284
1.4,0.0075,-1516
1.4,0.05125,-1376
1.4,0.08,-1464
1.4,0.09375,-1456
1.4,0.12875,-1524
1.4,0.12125,-1500
1.4,0.16375,-1508
1.4,0.07,-1384
1.4,0.0275,-1444
1.4,0.0125,-1516
1.4,0.04,-1480
1.4,0.0725,-1396
1.4,0.035,-1448
1.4,0.035,-1472
1.4,0.055,-1544
1.4,0.0575,-1292
1.4,0.005,-1540
1.4,0.07625,-1328
1.4,0.10375,-1436
1.4,0.12125,-1592
1.4,0.00125,-1372
1.4,0.0725,-1388
1.4,0.0275,-1316
1.4,0.02875,-1740
1.4,0.13375,-1496
1.4,0.0975,-1512
1.4,0.13375,-1460
1.4,0.15875,-1424
1.4,0.11625,-1512
1.4,0.03875,-1320
1.4,0.11625,-1548
1.4,0.095,-1472
1.4,0.0025,-1444
1.4,0.04125,-1392
1.4,0.10375,-1564
1.4,0.32125,-1572
1.4,0.03625,-1476
1.4,0.0825,-1348
1.4,0.17,-1464
1.4,0.10875,-1484
1.4,0.1,-1452
1.4,0.1075,-1600
1.4,0.0625,-1408
1.4,0.04,-1440
1.4,0.0325,-1380
1.4,0.035,-1364
1.4,0.02125,-1440
1.4,0.1325,-1604
1.4,0.025,-1384
1.4,0.00375,-1568
1.4,0.0575,-1552
1.4,0.15,-1468
1.4,0.10375,-1428
1.4,0.00375,-1532
1.4,0.02875,-1360
1.4,0.03125,-1392
1.4,0.27125,-1700
1.4,0.23125,-1492
1.4,0.14125,-1472
1.4,0.0075,-1400
1.4,0.0775,-1412
1.4,0.09875,-1468
1.4,0.0675,-1452
1.4,0.0875,-1392
1.4,0.00125,-1412
1.4,0.12125,-1548
1.4,0.005,-1432
1.4,0.095,-1392
1.4,0.09,-1464
1.4,0.11125,-1424
1.4,0.10625,-1520
1.4,0.0225,-1544
1.4,0.0025,-1536
1.4,0.04625,-1388
1.4,0.12875,-1548
1.4,0.13875,-1520
1.4,0.095,-1460
1.4,0.02875,-1500
1.4,0.075,-1372
1.4,0.10125,-1556
1.4,0.13,-1456
1.4,0.04125,-1432
1.4,0.05,-1476
1.4,0.0275,-1424
1.4,0.07875,-1372
1.4,0.06,-1344
1.4,0.1825,-1568
1.4,0.06,-1456
1.4,0.2675,-1628
1.4,0.11625,-1380
1.4,0.13375,-1532
1.4,0.045,-1444
1.4,0.0375,-1308
1.4,0.1,-1464
1.4,0.00375,-1492
1.4,0.0175,-1320
1.4,0.07375,-1524
1.4,0.05375,-1388
1.4,0.165,-1512
1.4,0.0975,-1492
1.4,0.17625,-1416
1.4,0.0125,-1472
1.4,0.00125,-1428
1.4,0.025,-1580
1.4,0.015,-1484
1.4,0.0525,-1456
1.4,0.04375,-1588
1.4,0.01875,-1452
1.4,0.1875,-1364
1.4,0.20875,-1548
1.4,0.01625,-1464
1.4,0.23125,-1448
1.4,0.02375,-1400
1.4,0.0375,-1280
1.4,0.155,-1416
1.4,0.0775,-1348
1.4,0.05875,-1504
1.4,0.02,-1440
1.4,0.01,-1400
1.4,0.04625,-1376
1.4,0.035,-1408
1.4,0.075,-1452
1.4,0.06875,-1332
1.4,0.06125,-1452
1.4,0.0525,-1492
1.4,0.0675,-1548
1.4,0.15,-1492
1.4,0.0875,-1400
1.4,0.03375,-1516
1.4,0.025,-1404
1.4,0.0575,-1464
1.4,0.09875,-1484
1.4,0.0075,-1484
1.4,0.235,-1476
1.4,0.13125,-1460
1.4,0.08875,-1448
1.4,0.16375,-1484
1.4,0.0275,-1528
1.4,0.215,-1620
1.4,0.07375,-1548
1.4,0.025,-1488
1.4,0.02875,-1460
1.4,0.04875,-1392
1.4,0.01625,-1588
1.4,0.1225,-1360
1.4,0.0275,-1552
1.4,0.10125,-1280
1.4,0.23375,-1508
1.4,0.1425,-1464
1.4,0.03375,-1420
1.4,0.08375,-1476
1.4,0.05875,-1472
1.4,0.0425,-1364
1.4,0.195,-1540
1.4,0.08875,-1552
1.4,0.01375,-1424
1.4,0.0075,-1416
1.4,0.025,-1456
1.4,0.1325,-1512
1.4,0.11125,-1532
1.4,0.1725,-1444
1.4,0.22,-1500
1.4,0.06125,-1304
1.4,0.06375,-1428
1.4,0.03,-1356
1.4,0.1875,-1396
1.4,0.065,-1408
1.4,0.08,-1620
1.4,0.01625,-1364
1.4,0.0375,-1416
1.4,0.085,-1540
1.4,0.08375,-1360
1.4,0.17,-1508
1.4,0.00375,-1452
1.4,0.03375,-1588
1.4,0.2325,-1384
1.4,0.09875,-1288
1.4,0.14125,-1536
1.4,0.02,-1556
1.4,0.14375,-1468
1.4,0.11375,-1308
1.4,0.07625,-1488
1.4,0.025,-1468
1.4,0.06125,-1512
1.4,0.08875,-1504
1.4,0.10375,-1460
1.4,0.15125,-1464
1.4,0.00125,-1332
1.4,0.205,-1396
1.4,0.135,-1492
1.4,0.1025,-1348
1.4,0.11375,-1464
1.4,0.07875,-1452
1.4,0.00125,-1300
1.4,0.1325,-1656
1.4,0.06,-1480
1.4,0.1125,-1380
1.4,0.1175,-1460
1.4,0.00875,-1472
1.4,0.24375,-1532
1.4,0.095,-1568
1.4,0.08,-1504
1.4,0.1125,-1352
1.4,0.05125,-1508
1.4,0.3275,-1648
1.4,0.11625,-1528
1.4,0.01125,-1392
1.4,0.06625,-1568
1.4,0.02,-1464
1.4,0.10375,-1368
1.4,0.1775,-1512
1.4,0.02,-1436
1.4,0.03125,-1484
1.4,0.02875,-1372
1.4,0.09125,-1572
1.4,0.0875,-1436
1.4,0.17,-1528
1.4,0.01,-1372
1.4,0.1425,-1320
1.4,0.13375,-1628
1.4,0.13875,-1472
1.4,0.04125,-1524
1.4,0.01125,-1396
1.4,0.0525,-1344
1.4,0.09375,-1404
1.4,0.16875,-1488
1.4,0.09375,-1496
1.4,0.08125,-1528
1.4,0.02875,-1456
1.4,0.03125,-1536
1.4,0.015,-1432
1.4,0.0325,-1464
1.4,0.0575,-1432
1.4,0.095,-1424
1.4,0.055,-1484
1.4,0.0475,-1488
1.4,0.1225,-1404
1.4,0.09375,-1292
1.4,0.2,-1420
1.4,0.05625,-1544
1.4,0.07125,-1588
1.4,0.0675,-1500
1.4,0.02125,-1496
1.4,0.0125,-1468
1.4,0.04375,-1500
1.4,0.18,-1400
1.4,0.22375,-1440
1.4,0.20625,-1556
1.4,0.1325,-1596
1.4,0.1575,-1428
1.4,0.05125,-1484
1.4,0.03,-1528
1.4,0.08375,-1272
1.4,0.0625,-1356
1.4,0.0375,-1592
1.4,0.20375,-1680
1.4,0.005,-1416
1.4,0.01875,-1372
1.4,0.05375,-1436
1.4,0.01125,-1432
1.4,0.03625,-1404
1.4,0.0925,-1500
1.4,0.1975,-1444
1.4,0.11875,-1432
1.4,0.165,-1644
1.4,0.01375,-1436
1.4,0.07625,-1348
1.4,0.11375,-1528
1.4,0.0325,-1408
1.4,0.08,-1380
1.4,0.0425,-1336
1.4,0.13,-1360
1.4,0.12125,-1412
1.4,0.0375,-1440
1.4,0.045,-1416
1.4,0.015,-1404
1.4,0.045,-1408
1.4,0.04,-1508
1.4,0.06875,-1444
1.4,0.17375,-1512
1.4,0.135,-1572
1.4,0.10125,-1512
1.4,0.13,-1320
1.4,0.0425,-1416
1.4,0.04875,-1476
1.4,0.115,-1448
1.4,0.1025,-1320
1.4,0.01875,-1524
1.4,0.05125,-1352
1.4,0.0525,-1496
1.4,0.06875,-1408
1.4,0.1725,-1324
1.4,0.21375,-1380
1.4,0.12,-1444
1.4,0.21625,-1444
1.4,0.14,-1488
1.4,0.02875,-1452
1.4,0.14875,-1508
1.4,0.085,-1464
1.4,0.01875,-1568
1.4,0.0675,-1528
1.4,0.19125,-1420
1.4,0.1875,-1484
1.4,0.11125,-1364
1.4,0.18875,-1540
1.4,0.0275,-1336
1.4,0.13,-1408
1.4,0.035,-1460
1.4,0.00375,-1460
1.4,0.17,-1384
1.4,0.15125,-1428
1.4,0.2575,-1472
1.4,0.02375,-1356
1.4,0.03375,-1488
1.4,0.08,-1504
1.4,0.05625,-1384
1.4,0.28,-1464
1.4,0.0775,-1492
1.4,0.14,-1492
1.4,0.10875,-1532
1.4,0.1225,-1416
1.4,0.1925,-1584
1.4,0.1975,-1448
1.4,0.1275,-1432
1.4,0.04875,-1464
1.4,0.05375,-1388
1.4,0.07125,-1276
1.4,0.1025,-1492
1.4,0.06125,-1416
1.4,0.07125,-1436
1.4,0.07,-1548
1.4,0.07375,-1624
1.4,0.0125,-1440
1.4,0.02375,-1440
1.4,0.09625,-1432
1.4,0.14125,-1456
1.4,0.1825,-1548
1.4,0.065,-1668
1.4,0.07,-1364
1.4,0.15875,-1356
1.4,0.18625,-1640
1.4,0.06125,-1336
1.4,0.1225,-1612
1.4,0.0575,-1484
1.4,0.02625,-1416
1.4,0.05125,-1348
1.4,0.03125,-1580
1.4,0.14125,-1396
1.4,0.06375,-1420
1.4,0.05125,-1544
1.4,0.055,-1608
1.4,0.0775,-1408
1.4,0.04625,-1412
1.4,0.08625,-1452
1.4,0.03125,-1468
1.4,0.1375,-1460
1.4,0.1175,-1496
1.4,0.10875,-1496
1.4,0,-1508
1.4,0.175,-1564
1.4,0.19125,-1604
1.4,0.00125,-1392
1.4,0.12375,-1464
1.4,0.015,-1376
1.4,0.03,-1464
1.4,0.025,-1364
1.4,0.10875,-1372
1.4,0.07125,-1460
1.4,0.01125,-1508
1.4,0.0075,-1420
1.4,0.115,-1520
1.4,0.26625,-1512
1.4,0.02375,-1552
1.4,0.00375,-1400
1.4,0.055,-1440
1.4,0.08375,-1320
1.4,0.0975,-1296
1.4,0.14375,-1436
1.4,0.24,-1432
1.4,0.1,-1532
1.4,0.145,-1372
1.4,0.07875,-1468
1.4,0.03625,-1592
1.4,0.0175,-1492
1.4,0.1125,-1504
1.4,0.0925,-1568
1.4,0.02875,-1384
1.4,0.0975,-1232
1.4,0.05875,-1412
1.4,0.0375,-1436
1.4,0.06125,-1396
1.4,0.09625,-1544
1.4,0.0075,-1384
1.4,0.13,-1364
1.4,0.08375,-1496
1.4,0.08125,-1352
1.4,0.13875,-1316
1.4,0.015,-1436
1.4,0.02875,-1560
1.4,0.10875,-1504
1.4,0.0425,-1392
1.4,0.08625,-1360
1.4,0.12375,-1560
1.4,0.09625,-1660
1.4,0.03,-1280
1.4,0.075,-1364
1.4,0.05125,-1484
1.4,0.12625,-1512
1.4,0.145,-1396
1.4,0.03625,-1340
1.4,0.04875,-1420
1.4,0.035,-1500
1.4,0.10625,-1392
1.4,0.04375,-1436
1.4,0.03375,-1432
1.4,0.14625,-1508
1.4,0.07,-1408
1.4,0.065,-1380
1.4,0.00375,-1436
1.4,0.13625,-1496
1.4,0.045,-1476
1.4,0.15125,-1456
1.4,0.01375,-1348
1.4,0.06625,-1444
1.4,0.04,-1368
1.4,0.0125,-1336
1.4,0.09625,-1348
1.4,0.07875,-1384
1.4,0.12,-1552
1.4,0.02625,-1520
1.4,0.155,-1352
1.4,0.16625,-1372
1.4,0.01,-1340
1.4,0.07125,-1400
1.4,0.105,-1452
1.4,0.1025,-1536
1.4,0.10375,-1288
1.4,0.1325,-1492
1.4,0.085,-1452
1.4,0.1225,-1420
1.4,0.14375,-1436
1.4,0.0825,-1416
1.4,0.07375,-1488
1.4,0.13,-1504
1.4,0.06625,-1428
1.4,0.11375,-1552
1.4,0,-1564
1.4,0.0225,-1440
1.4,0.0425,-1432
1.4,0.06875,-1380
1.4,0.00625,-1444
1.4,0.17625,-1336
1.4,0.095,-1444
1.4,0.01625,-1380
1.4,0.11375,-1408
1.4,0.00625,-1380
1.4,0.00125,-1516
1.4,0.115,-1368
1.4,0.2225,-1484
1.4,0.1175,-1384
1.4,0.0375,-1488
1.4,0.07625,-1512
1.4,0.06875,-1544
1.4,0.0575,-1432
1.4,0.0875,-1348
1.4,0.09125,-1592
1.4,0.005,-1488
1.4,0.00125,-1404
1.4,0.005,-1420
1.4,0.04375,-1504
1.4,0.04625,-1304
1.4,0.03875,-1452
1.4,0.01125,-1392
1.4,0.065,-1388
1.4,0.08875,-1332
1.4,0.1725,-1512
1.4,0.195,-1532
1.4,0.085,-1420
1.4,0.1025,-1360
1.4,0.055,-1516
1.4,0.09125,-1444
1.4,0.1325,-1484
1.4,0.015,-1608
1.4,0.06875,-1516
1.4,0.27875,-1572
1.4,0.1025,-1532
1.4,0.05625,-1644
1.4,0.1175,-1512
1.4,0.06,-1428
1.4,0.14125,-1504
1.4,0.1,-1500
1.4,0.0325,-1576
1.4,0.03875,-1448
1.4,0.04375,-1508
1.4,0.0925,-1324
1.4,0.08875,-1376
1.4,0.0275,-1532
1.4,0.03125,-1424
1.4,0.02,-1400
1.4,0.01625,-1392
1.4,0.15375,-1632
1.4,0.02,-1424
1.4,0.00625,-1356
1.4,0.03,-1316
1.4,0.03,-1396
1.4,0.08375,-1448
1.4,0.06625,-1364
1.4,0.065,-1428
1.4,0.00125,-1492
1.4,0.17,-1544
1.4,0.05,-1396
1.4,0.175,-1548
1.4,0.03,-1412
1.4,0.04125,-1324
1.4,0.09,-1616
1.4,0.11875,-1460
1.4,0.035,-1532
1.4,0,-1560
1.4,0.02625,-1440
1.4,0.03625,-1572
1.4,0.0525,-1312
1.4,0.0675,-1444
1.4,0.0425,-1460
1.4,0.06375,-1480
1.4,0.1275,-1520
1.4,0.1275,-1384
1.4,0.02,-1272
1.4,0.03,-1412
1.4,0.06875,-1392
1.4,0.065,-1364
1.4,0.06125,-1288
1.4,0.045,-1472
1.4,0.08375,-1504
1.4,0.08,-1480
1.4,0.03125,-1492
1.4,0.02375,-1468
1.4,0.02625,-1504
1.4,0.0775,-1340
1.4,0.07125,-1388
1.4,0.04375,-1420
1.4,0.02875,-1456
1.4,0.0975,-1384
1.4,0.13125,-1592
1.4,0.00125,-1508
1.4,0.035,-1428
1.4,0.03125,-1376
1.4,0.25125,-1520
1.4,0.08,-1420
1.4,0.16625,-1564
1.4,0.1925,-1560
1.4,0.1175,-1344
1.4,0.01375,-1552
1.4,0.2475,-1524
1.4,0.07625,-1468
1.4,0.12875,-1316
1.4,0.07875,-1508
1.4,0.03,-1488
1.4,0.05125,-1416
1.4,0.215,-1428
1.4,0.01875,-1524
1.4,0.00875,-1412
1.4,0.15125,-1396
1.4,0.04875,-1420
1.4,0.025,-1428
1.4,0.0325,-1460
1.4,0.10875,-1308
1.4,0.00875,-1384
1.4,0.11125,-1416
1.4,0.13875,-1560
1.4,0.09125,-1420
1.4,0.19625,-1428
1.4,0.1,-1496
1.4,0.12625,-1492
1.4,0.0625,-1456
1.4,0.045,-1536
1.4,0.06125,-1436
1.4,0.115,-1360
1.4,0.06875,-1384
1.4,0.13625,-1460
1.4,0.00125,-1592
1.4,0.0375,-1544
1.4,0.06375,-1432
1.4,0.03375,-1448
1.4,0.14875,-1392
1.4,0.19,-1380
1.4,0.22,-1396
1.4,0.03625,-1488
1.4,0.105,-1308
1.4,0.0225,-1392
1.4,0.1125,-1520
1.4,0.07625,-1396
1.4,0.03,-1420
1.4,0.18,-1452
1.4,0.11125,-1492
1.4,0.265,-1532
1.4,0.235,-1564
1.4,0.235,-1396
1.4,0.0625,-1452
1.4,0.17625,-1512
1.4,0.0425,-1408
1.4,0.045,-1412
1.4,0.03625,-1480
1.4,0.00625,-1468
1.4,0.10125,-1616
1.4,0.12875,-1588
1.4,0.0425,-1264
1.4,0.035,-1488
1.4,0.08875,-1432
1.4,0.12875,-1436
1.4,0.0725,-1544
1.4,0.04,-1500
1.4,0.10375,-1548
1.4,0.02125,-1560
1.4,0.01375,-1516
1.4,0.06375,-1360
1.4,0.0025,-1496
1.4,0.02125,-1508
1.4,0.0825,-1388
1.4,0.08375,-1400
1.4,0.1325,-1568
1.4,0.07875,-1528
1.4,0.16375,-1420
1.4,0.03125,-1480
1.4,0.0275,-1436
1.4,0.005,-1532
1.4,0.24625,-1364
1.4,0.17875,-1640
1.4,0.09125,-1544
1.4,0.14375,-1464
1.4,0.205,-1436
1.4,0.00625,-1508
1.4,0.1025,-1444
1.4,0.0275,-1352
1.4,0.0475,-1508
1.4,0.02125,-1268
1.4,0.09125,-1484
1.4,0.1275,-1416
1.4,0.01875,-1564
1.4,0.11,-1420
1.4,0.21625,-1576
1.4,0.18375,-1592
1.4,0.1175,-1512
1.4,0.16375,-1460
1.4,0.19,-1532
1.4,0.14625,-1664
1.4,0.02875,-1540
1.4,0.01625,-1528
1.4,0.135,-1452
1.4,0.09375,-1480
1.4,0.1975,-1572
1.4,0.1175,-1312
1.4,0.05,-1504
1.4,0.05375,-1456
1.4,0.07875,-1436
1.4,0.06125,-1368
1.4,0.0375,-1552
1.4,0.005,-1456
1.4,0.03875,-1492
1.4,0.00375,-1352
1.4,0.12125,-1420
1.4,0.165,-1544
1.4,0.03875,-1388
1.4,0.01625,-1448
1.4,0.0775,-1572
1.4,0.0425,-1332
1.4,0.0925,-1464
1.4,0.10625,-1484
1.4,0.07625,-1536
1.4,0.075,-1504
1.4,0.04625,-1468
1.4,0.065,-1544
1.4,0.02875,-1632
1.4,0.02125,-1456
1.4,0.0225,-1444
1.4,0.05875,-1364
1.4,0.17625,-1512
1.4,0.09125,-1460
1.4,0.08625,-1512
1.4,0.0175,-1464
1.4,0.1375,-1404
1.4,0.0125,-1516
1.4,0.02125,-1488
1.4,0.1425,-1436
1.4,0.1075,-1208
1.4,0.1775,-1412
1.4,0.21875,-1484
1.4,0.13,-1392
1.4,0.105,-1300
1.4,0.07375,-1552
1.4,0.0875,-1500
1.4,0.07,-1480
1.4,0.09875,-1288
1.4,0.055,-1384
1.4,0.175,-1576
1.4,0.01625,-1480
1.4,0.05875,-1584
1.4,0.0675,-1528
1.4,0.10375,-1632
1.4,0.1025,-1544
1.4,0.13875,-1416
1.4,0.13,-1524
1.4,0.05125,-1396
1.4,0.055,-1284
1.4,0.105,-1496
1.4,0.13,-1460
1.4,0.14625,-1520
1.4,0.24375,-1528
1.4,0.07875,-1400
1.4,0.08,-1476
1.4,0.18375,-1548
1.4,0.08375,-1420
1.4,0.02875,-1488
1.4,0.0425,-1612
1.4,0.045,-1320
1.4,0.21875,-1532
1.4,0.05875,-1476
1.4,0.015,-1400
1.4,0.0325,-1456
1.4,0.08875,-1324
1.4,0.02875,-1476
1.4,0.125,-1588
1.4,0.21625,-1420
1.4,0.15875,-1476
1.4,0.15,-1472
1.4,0.0225,-1576
1.4,0.0625,-1400
1.4,0.09,-1408
1.4,0.0775,-1460
1.4,0.12,-1384
1.4,0.18625,-1432
1.4,0.11125,-1292
1.4,0.0975,-1416
1.4,0.13875,-1400
1.4,0.125,-1388
1.4,0.065,-1448
1.4,0.06375,-1532
1.4,0.09625,-1496
1.4,0.1575,-1544
1.4,0.1,-1384
1.4,0.2,-1652
1.4,0.04625,-1396
1.4,0.03375,-1344
1.4,0.015,-1328
1.4,0.065,-1520
1.4,0.06625,-1452
1.4,0.07125,-1448
1.4,0.1,-1532
1.4,0.23625,-1708
1.4,0.1575,-1504
1.4,0.02875,-1452
1.4,0.0125,-1428
1.4,0.06625,-1404
1.4,0.1325,-1388
1.4,0.135,-1452
1.4,0.15,-1412
1.4,0.0075,-1432
1.4,0.01,-1576
1.4,0.08875,-1456
1.4,0.0425,-1320
1.4,0.0875,-1396
1.4,0.0225,-1536
1.4,0.01875,-1440
1.4,0.0275,-1400
1.4,0.08875,-1408
1.4,0.21375,-1532
1.4,0.22375,-1504
1.4,0.05125,-1496
1.4,0.035,-1464
1.4,0.0175,-1536
1.4,0.09,-1396
1.4,0.195,-1440
1.4,0.04125,-1468
1.4,0.06875,-1528
1.4,0.015,-1452
1.4,0.13375,-1500
1.4,0.0025,-1504
1.4,0.05625,-1408
1.4,0.01125,-1492
1.4,0.03125,-1348
1.4,0.0425,-1296
1.4,0.10375,-1324
1.4,0.1425,-1572
1.4,0.005,-1320
1.4,0.15,-1444
1.4,0.035,-1472
1.4,0.0775,-1420
1.4,0.11,-1476
1.4,0.0125,-1348
1.4,0.17125,-1444
1.4,0.0925,-1404
1.4,0.0825,-1380
1.4,0.16625,-1592
1.4,0.0975,-1388
1.4,0.09375,-1428
1.4,0.145,-1392
1.4,0.18625,-1384
1.4,0.03,-1444
1.4,0.0525,-1420
1.4,0.10875,-1476
1.4,0.205,-1584
1.4,0.105,-1456
1.4,0.0875,-1564
1.4,0.08375,-1352
1.4,0.10625,-1448
1.4,0.12875,-1340
1.4,0.01,-1488
1.4,0.0225,-1480
1.4,0.17875,-1512
1.4,0.08625,-1400
1.4,0.0075,-1324
1.4,0.06,-1516
1.4,0.01375,-1348
1.4,0.065,-1464
1.4,0,-1440
1.4,0.12625,-1544
1.4,0.0475,-1412
1.4,0.145,-1564
1.4,0.1475,-1472
1.4,0.01,-1464
1.4,0.2425,-1772
1.4,0.0125,-1608
1.4,0.09375,-1536
1.4,0.1775,-1504
1.4,0.02375,-1312
1.4,0.00625,-1540
1.4,0.005,-1400
1.4,0.07625,-1332
1.4,0.09,-1504
1.4,0.0825,-1432
1.4,0.12375,-1428
1.4,0.06875,-1512
1.4,0.02125,-1480
1.4,0.18625,-1416
1.4,0.095,-1384
1.4,0.02,-1508
1.4,0.0625,-1484
1.4,0.01375,-1460
1.4,0.07375,-1424
1.4,0.01625,-1420
1.4,0.0325,-1352
1.4,0.01625,-1420
1.4,0.06,-1520
1.4,0.0525,-1440
1.4,0.1525,-1436
1.4,0.0025,-1412
1.4,0.16875,-1480
1.4,0.0275,-1596
1.4,0.0225,-1592
1.4,0.17,-1532
1.4,0.02125,-1552
1.4,0.005,-1440
1.4,0.06625,-1608
1.4,0.0475,-1356
1.4,0.0375,-1468
1.4,0.115,-1364
1.4,0.015,-1292
1.4,0.04625,-1456
1.4,0.07625,-1576
1.4,0.005,-1492
1.4,0.0175,-1556
1.4,0.11375,-1520
1.4,0.1175,-1412
1.4,0.05625,-1312
1.4,0.115,-1372
1.4,0.11,-1504
1.4,0.13,-1468
1.4,0.1825,-1344
1.4,0.03375,-1392
1.4,0.09875,-1548
1.4,0.08125,-1352
1.4,0.215,-1536
1.4,0.03125,-1360
1.4,0.0625,-1428
1.4,0.18,-1404
1.4,0.13375,-1432
1.4,0.00375,-1212
1.4,0.21375,-1668
1.4,0.04875,-1344
1.4,0.01875,-1436
1.4,0.09125,-1452
1.4,0.07125,-1300
1.4,0.0375,-1364
1.4,0.0625,-1408
1.4,0.0625,-1440
1.4,0.115,-1428
1.4,0.11125,-1404
1.4,0.10375,-1388
1.4,0.02875,-1424
1.4,0.155,-1468
1.4,0.175,-1624
1.4,0.045,-1536
1.4,0.07,-1432
1.4,0.01625,-1440
1.4,0.115,-1552
1.4,0.015,-1252
1.4,0.1675,-1536
1.4,0.10625,-1344
1.4,0.05375,-1444
1.4,0.1825,-1468
1.4,0.01625,-1572
1.4,0.03375,-1436
1.4,0.0475,-1336
1.4,0.1125,-1608
1.4,0.105,-1480
1.4,0.1575,-1504
1.4,0.1575,-1456
1.4,0.03,-1400
1.4,0.055,-1464
1.4,0.02875,-1424
1.4,0.29625,-1508
1.4,0.01,-1420
1.4,0.10125,-1464
1.4,0.045,-1356
1.4,0.0575,-1464
1.4,0.02125,-1432
1.4,0.0825,-1372
1.4,0.1825,-1524
1.4,0.095,-1308
1.4,0.005,-1316
1.4,0.06625,-1280
1.4,0.0425,-1356
1.4,0.025,-1388
1.4,0.03375,-1456
1.4,0.0075,-1480
1.4,0.09125,-1448
1.4,0.15875,-1572
1.4,0.0825,-1492
1.4,0.01625,-1416
1.4,0.03375,-1436
1.4,0.11625,-1480
1.4,0.07625,-1536
1.4,0.085,-1448
1.4,0.0625,-1476
1.4,0.14,-1448
1.4,0.01125,-1560
1.4,0.06125,-1272
1.4,0.04,-1508
1.4,0.115,-1540
1.4,0.145,-1544
1.4,0.035,-1452
1.4,0.0575,-1396
1.4,0.11375,-1460
1.4,0.015,-1340
1.4,0.05125,-1404
1.4,0.1,-1296
1.4,0.09875,-1492
1.4,0.1,-1436
1.4,0.0025,-1416
1.4,0.00875,-1324
1.4,0.055,-1496
1.4,0.10375,-1528
1.4,0.03375,-1504
1.4,0,-1372
1.4,0.09625,-1452
1.4,0.03125,-1456
1.4,0.09375,-1404
1.4,0.0025,-1300
1.4,0.05875,-1352
1.4,0.0975,-1436
1.4,0.1575,-1412
1.4,0.09875,-1376
1.4,0.10125,-1348
1.4,0.20875,-1532
1.4,0.1225,-1548
1.4,0.0825,-1412
1.4,0.14375,-1412
1.4,0.0925,-1452
1.4,0.115,-1596
1.4,0.00625,-1448
1.4,0.1925,-1500
1.4,0.08125,-1484
1.4,0.10125,-1480
1.4,0.055,-1476
1.4,0.155,-1428
1.4,0.1275,-1384
1.4,0.0175,-1424
1.4,0.04375,-1352
1.4,0.1975,-1468
1.4,0.005,-1412
1.4,0.07125,-1436
1.4,0.095,-1368
1.4,0.0025,-1324
1.4,0.0025,-1468
1.4,0.0325,-1320
1.4,0.1025,-1416
1.4,0.12125,-1452
1.4,0.05875,-1360
1.4,0.10625,-1484
1.4,0.03,-1436
1.4,0.175,-1500
1.4,0.07,-1504
1.4,0.16125,-1496
1.4,0.06125,-1480
1.4,0.1425,-1408
1.4,0.045,-1492
1.4,0.0375,-1444
1.4,0.02625,-1484
1.4,0.05125,-1412
1.4,0.02125,-1276
1.4,0.1475,-1444
1.4,0.01375,-1516
1.4,0.2375,-1620
1.4,0.26125,-1460
1.4,0.0125,-1456
1.4,0.00375,-1420
1.4,0.08125,-1492
1.4,0.0025,-1384
1.4,0.13375,-1568
1.4,0.03125,-1444
1.4,0.015,-1628
1.4,0.0375,-1416
1.4,0.05,-1372
1.4,0.1425,-1388
1.4,0.04375,-1548
1.4,0.03,-1524
1.4,0.00625,-1304
1.4,0.0775,-1456
1.4,0.06,-1376
1.4,0.12625,-1528
1.4,0.06375,-1384
1.4,0.1825,-1488
1.4,0.06875,-1404
1.4,0.05625,-1500
1.4,0.01,-1544
1.4,0.02875,-1540
1.4,0.0825,-1520
1.4,0.0925,-1560
1.4,0.18,-1364
1.4,0.24,-1432
1.4,0.0075,-1428
1.4,0.15125,-1444
1.4,0.03125,-1348
1.4,0.075,-1528
1.4,0.02125,-1444
1.4,0.21125,-1616
1.4,0.25875,-1456
1.4,0.00375,-1516
1.4,0.01625,-1480
1.4,0.0025,-1392
1.4,0.01,-1340
1.4,0.25,-1540
1.4,0.04,-1448
1.4,0.07375,-1472
1.4,0.1725,-1496
1.4,0.05375,-1364
1.4,0.07625,-1460
1.4,0.125,-1504
1.4,0.13,-1512
1.4,0.135,-1580
1.4,0.13875,-1452
1.4,0.055,-1444
1.4,0.15625,-1584
1.4,0.2225,-1420
1.4,0.06875,-1324
1.4,0.03125,-1476
1.4,0.0225,-1464
1.4,0.04,-1284
1.4,0.04375,-1492
1.4,0.11625,-1480
1.4,0.035,-1292
1.4,0.02375,-1380
1.4,0.0525,-1560
1.4,0.01625,-1316
1.4,0.12125,-1404
1.4,0.07375,-1476
1.4,0.00125,-1348
1.4,0.0675,-1432
1.4,0.05125,-1456
1.4,0.05875,-1376
1.4,0.14875,-1412
1.4,0.04625,-1420
1.4,0.2275,-1612
1.4,0.03875,-1408
1.4,0.075,-1444
1.4,0.06,-1396
1.4,0.015,-1636
1.4,0.13,-1580
1.4,0.16125,-1392
1.4,0.0375,-1408
1.4,0.0625,-1348
1.4,0.07875,-1608
1.4,0.07125,-1476
1.4,0.075,-1344
1.4,0.3275,-1588
1.4,0.12125,-1416
1.4,0.0225,-1488
1.4,0.04625,-1492
1.4,0.13,-1376
1.4,0.0075,-1472
1.4,0.05625,-1460
1.4,0.06125,-1480
1.4,0.02875,-1396
1.4,0.05875,-1372
1.4,0.085,-1404
1.4,0.0075,-1532
1.4,0.025,-1540
1.4,0.05,-1304
1.4,0.0025,-1432
1.4,0.1125,-1384
1.4,0.005,-1388
1.4,0.1725,-1460
1.4,0.07,-1492
1.4,0.01125,-1404
1.4,0.115,-1364
1.4,0.19125,-1608
1.4,0.15875,-1484
1.4,0.19,-1600
1.4,0.07375,-1548
1.4,0.15625,-1480
1.4,0.02,-1516
1.4,0.0225,-1532
1.4,0.0875,-1536
1.4,0.0825,-1408
1.4,0.07,-1432
1.4,0.19,-1396
1.4,0.02,-1496
1.4,0.04875,-1508
1.4,0.0375,-1480
1.4,0.11625,-1408
1.4,0.1425,-1472
1.4,0.00625,-1360
1.4,0.1075,-1396
1.4,0.0175,-1420
1.4,0.01625,-1476
1.4,0.005,-1468
1.4,0.04,-1460
1.4,0.0625,-1392
1.4,0.1,-1416
1.4,0.0175,-1480
1.4,0.1175,-1572
1.4,0.14,-1400
1.4,0.02375,-1356
1.4,0.07125,-1400
1.4,0.00875,-1252
1.4,0.12875,-1488
1.4,0.03375,-1396
1.4,0.13125,-1516
1.4,0.12625,-1500
1.4,0.04875,-1404
1.4,0.00625,-1540
1.4,0.005,-1456
1.4,0.01,-1544
1.4,0.04125,-1456
1.4,0.0075,-1516
1.4,0.0125,-1472
1.4,0.04,-1448
1.4,0.0275,-1476
1.4,0.00625,-1400
1.4,0.0025,-1532
1.4,0.09,-1556
1.4,0.13125,-1436
1.4,0.0125,-1616
1.4,0.05875,-1528
1.4,0.02,-1412
1.4,0.02375,-1416
1.4,0.05375,-1504
1.4,0.17875,-1360
1.4,0.12125,-1344
1.4,0.075,-1308
1.4,0.06875,-1332
1.4,0.02,-1392
1.4,0.045,-1540
1.4,0.1075,-1472
1.4,0.06375,-1436
1.4,0.01,-1508
1.4,0.03125,-1392
1.4,0.06375,-1428
1.4,0.08125,-1668
1.4,0.11625,-1472
1.4,0.1425,-1500
1.4,0.075,-1404
1.4,0.02125,-1456
1.4,0.1375,-1372
1.4,0.0125,-1564
1.4,0.0675,-1548
1.4,0.08125,-1396
1.4,0.02,-1324
1.4,0.14375,-1372
1.4,0.04,-1548
1.4,0.07375,-1392
1.4,0.11875,-1364
1.4,0.00375,-1444
1.4,0.0625,-1432
1.4,0.00375,-1512
1.4,0.18375,-1560
1.4,0.05125,-1448
1.4,0.0125,-1448
1.4,0.17125,-1324
1.4,0.00625,-1484
1.4,0.14875,-1460
1.4,0.025,-1436
1.4,0.07875,-1480
1.4,0.0025,-1324
1.4,0.16,-1456
1.4,0.07875,-1380
1.4,0.095,-1500
1.4,0.00875,-1376
1.4,0.085,-1452
1.4,0.09,-1556
1.4,0.0425,-1456
1.4,0.195,-1296
1.4,0.015,-1468
1.4,0.13125,-1404
1.4,0.07625,-1376
1.4,0.05375,-1448
1.4,0.1325,-1496
1.4,0.23625,-1408
1.4,0.10875,-1452
1.4,0.09375,-1460
1.4,0.07,-1376
1.4,0.07875,-1424
1.4,0.03,-1360
1.4,0.245,-1516
1.4,0.03625,-1360
1.4,0.02375,-1356
1.4,0.15125,-1524
1.4,0.0425,-1592
1.4,0.0575,-1396
1.4,0.0225,-1412
1.4,0.02,-1324
1.4,0.00875,-1468
1.4,0.01625,-1516
1.4,0.04,-1524
1.4,0.07,-1516
1.4,0.04875,-1388
1.4,0.13,-1644
1.4,0.12375,-1384
1.4,0.0625,-1416
1.4,0.04125,-1452
1.4,0.04625,-1372
1.4,0.00375,-1372
1.4,0.1675,-1512
1.4,0.0275,-1372
1.4,0.17375,-1468
1.4,0.09875,-1436
1.4,0.095,-1536
1.4,0.15,-1492
1.4,0.06375,-1372
1.4,0.15375,-1244
1.4,0.07,-1580
1.4,0.16875,-1452
1.4,0.06875,-1420
1.4,0.0325,-1388
1.4,0.1925,-1548
1.4,0.225,-1448
1.4,0.1075,-1400
1.4,0.07,-1448
1.4,0.04125,-1636
1.4,0.005,-1372
1.4,0.1175,-1596
1.4,0.0525,-1572
1.4,0.13625,-1452
1.4,0.01875,-1560
1.4,0.08,-1388
1.4,0.04375,-1524
1.4,0.1875,-1356
1.4,0.10625,-1588
1.4,0.00625,-1364
1.4,0.11625,-1492
1.4,0.19,-1612
1.4,0.095,-1528
1.4,0.1375,-1392
1.4,0.01,-1420
1.4,0.0225,-1364
1.4,0.135,-1532
1.4,0.0775,-1560
1.4,0.11,-1368
1.4,0.09125,-1596
1.4,0.04625,-1412
1.4,0.105,-1584
1.4,0.07375,-1556
1.4,0.13625,-1540
1.4,0.0975,-1432
1.4,0.01,-1556
1.4,0.01,-1456
1.4,0.14625,-1596
1.4,0.15375,-1460
1.4,0.08,-1440
1.4,0.08,-1340
1.4,0.08875,-1528
1.4,0.21,-1432
1.4,0.055,-1368
1.4,0.28875,-1604
1.4,0.03125,-1488
1.4,0.03375,-1620
1.4,0.01375,-1452
1.4,0.1375,-1452
1.4,0.1475,-1400
1.4,0.02125,-1428
1.4,0.05375,-1400
1.4,0.0175,-1336
1.4,0,-1468
1.4,0.1125,-1492
1.4,0.1625,-1576
1.4,0.16875,-1464
1.4,0.1825,-1380
1.4,0.01625,-1452
1.4,0.21625,-1424
1.4,0.06,-1500
1.4,0.02625,-1616
1.4,0.08125,-1288
1.4,0.0575,-1556
1.4,0.04875,-1456
1.4,0.0875,-1484
1.4,0.1275,-1356
1.4,0.2525,-1528
1.4,0.12125,-1548
1.4,0.02375,-1336
1.4,0.04,-1456
1.4,0.09875,-1388
1.4,0.03375,-1420
1.4,0.01125,-1352
1.4,0.155,-1532
1.4,0.00375,-1548
1.4,0.1075,-1356
1.4,0.04625,-1456
1.4,0.29625,-1512
1.4,0.195,-1492
1.4,0.05625,-1496
1.4,0.1525,-1456
1.4,0.00875,-1608
1.4,0.09625,-1384
1.4,0.09625,-1252
1.4,0.0825,-1440
1.4,0.1475,-1496
1.4,0.165,-1416
1.4,0.245,-1396
1.4,0.025,-1368
1.4,0.05125,-1472
1.4,0.285,-1476
1.4,0.0325,-1308
1.4,0.005,-1596
1.4,0.00625,-1272
1.4,0.0675,-1400
1.4,0.1125,-1480
1.4,0.1375,-1420
1.4,0.18375,-1464
1.4,0.03375,-1400
1.4,0.01125,-1392
1.4,0.20375,-1472
1.4,0.13375,-1304
1.4,0.18625,-1464
1.4,0.05625,-1416
1.4,0.13625,-1468
1.4,0.04625,-1404
1.4,0.03,-1596
1.4,0.02,-1468
1.4,0.05,-1420
1.4,0.06125,-1356
1.4,0.06625,-1472
1.4,0.14625,-1484
1.4,0.07375,-1440
1.4,0.015,-1456
1.4,0.12,-1356
1.4,0.17125,-1524
1.4,0.08875,-1388
1.4,0.035,-1608
1.4,0.0275,-1304
1.4,0.1675,-1536
1.4,0.09125,-1600
1.4,0.04,-1524
1.4,0.05125,-1428
1.4,0.10625,-1408
1.4,0.0025,-1368
1.4,0.18375,-1488
1.4,0.0825,-1312
1.4,0.08375,-1492
1.4,0.16875,-1440
1.4,0.075,-1552
1.4,0.165,-1556
1.4,0.065,-1392
1.4,0.10375,-1516
1.4,0.04125,-1436
1.4,0.07625,-1524
1.4,0.13,-1496
1.4,0.06,-1428
1.4,0.00875,-1476
1.4,0.12875,-1496
1.4,0.3075,-1388
1.4,0.03625,-1448
1.4,0.06,-1392
1.4,0.10125,-1472
1.4,0.02125,-1380
1.4,0,-1444
1.4,0.07,-1564
1.4,0.055,-1488
1.4,0.1,-1416
1.4,0.1625,-1420
1.4,0.04875,-1416
1.4,0.0975,-1568
1.4,0.0525,-1376
1.4,0.09875,-1508
1.4,0.0325,-1408
1.4,0.11125,-1448
1.4,0.0075,-1412
1.4,0.03625,-1380
1.4,0.03125,-1428
1.4,0.1375,-1460
1.4,0.01,-1356
1.4,0.065,-1460
1.4,0.1875,-1528
1.4,0.08625,-1404
1.4,0.0875,-1464
1.4,0.05,-1444
1.4,0.0575,-1412
1.4,0.00125,-1436
1.4,0.01875,-1352
1.4,0.055,-1396
1.4,0.06,-1472
1.4,0.1375,-1488
1.4,0.01875,-1416
1.4,0.0775,-1552
1.4,0.0075,-1604
1.4,0.02875,-1412
1.4,0.0325,-1472
1.4,0.155,-1444
1.4,0.095,-1596
1.4,0.05625,-1448
1.4,0.04125,-1516
1.4,0.08,-1372
1.4,0.04125,-1432
1.4,0.015,-1440
1.4,0.05125,-1504
1.4,0.0075,-1384
1.4,0.19375,-1616
1.4,0.21125,-1468
1.4,0.13375,-1504
1.4,0.02,-1364
1.4,0.1575,-1460
1.4,0.2375,-1496
1.4,0.06625,-1484
1.4,0.18875,-1720
1.4,0.05875,-1412
1.4,0.1525,-1564
1.4,0.15375,-1544
1.4,0.08,-1404
1.4,0.1825,-1580
1.4,0.055,-1344
1.4,0.08375,-1440
1.4,0.035,-1440
1.4,0.1375,-1432
1.4,0.0425,-1584
1.4,0.01125,-1608
1.4,0.00375,-1540
1.4,0.07875,-1460
1.4,0.12125,-1508
1.4,0.10375,-1480
1.4,0.08,-1332
1.4,0.0125,-1500
1.4,0.125,-1452
1.4,0.1175,-1400
1.4,0.03625,-1480
1.4,0.01,-1408
1.4,0.05,-1460
1.4,0.0975,-1496
1.4,0.1225,-1536
1.4,0.19125,-1404
1.4,0.0575,-1624
1.4,0.045,-1448
1.4,0.00875,-1372
1.4,0.19625,-1500
1.4,0.0875,-1480
1.4,0.1575,-1352
1.4,0.06125,-1556
1.4,0.1325,-1460
1.4,0.05375,-1464
1.4,0.105,-1328
1.4,0.09,-1680
1.4,0.1,-1464
1.4,0.02875,-1628
1.4,0.21,-1516
1.4,0.02,-1356
1.4,0.0925,-1436
1.4,0.075,-1468
1.4,0.19875,-1368
1.4,0.0525,-1448
1.4,0.0225,-1516
1.4,0.02875,-1352
1.4,0.0175,-1204
1.4,0.215,-1348
1.4,0.10375,-1436
1.4,0.0725,-1308
1.4,0.01625,-1512
1.4,0.0425,-1412
1.4,0.07,-1448
1.4,0.02875,-1524
1.4,0.0775,-1408
1.4,0.005,-1492
1.4,0.07625,-1528
1.4,0.11,-1616
1.4,0.02625,-1540
1.4,0.08375,-1436
1.4,0.02875,-1520
1.4,0.015,-1328
1.4,0.045,-1396
1.4,0.0525,-1428
1.4,0.01875,-1424
1.4,0.23,-1488
1.4,0.12125,-1492
1.4,0.02125,-1396
1.4,0.0525,-1456
1.4,0.12625,-1288
1.4,0.055,-1296
1.4,0.02375,-1444
1.4,0.04125,-1452
1.4,0.1675,-1544
1.4,0.0375,-1456
1.4,0.00625,-1408
1.4,0.1075,-1524
1.4,0.07625,-1492
1.4,0.16,-1400
1.4,0.19,-1596
1.4,0.05375,-1460
1.4,0.1125,-1348
1.4,0.06875,-1352
1.4,0.10375,-1400
1.4,0.1725,-1568
1.4,0.13375,-1236
1.4,0.04125,-1492
1.4,0.13375,-1512
1.4,0.0575,-1404
1.4,0.07375,-1512
1.4,0.20375,-1520
1.4,0.07125,-1564
1.4,0.09125,-1484
1.4,0.10375,-1576
1.4,0.08,-1280
1.4,0.0475,-1476
1.4,0.04625,-1364
1.4,0.035,-1508
1.4,0.13875,-1400
1.4,0.0825,-1528
1.4,0.10625,-1584
1.4,0.08,-1520
1.4,0.08,-1456
1.4,0.11,-1380
1.4,0.27625,-1508
1.4,0.07875,-1356
1.4,0.18625,-1584
1.4,0.03,-1580
1.4,0.0125,-1480
1.4,0.0825,-1332
1.4,0.02125,-1388
1.4,0.02625,-1480
1.4,0.0525,-1368
1.4,0.03,-1408
1.4,0.22875,-1588
1.4,0.0525,-1336
1.4,0.12625,-1396
1.4,0.02875,-1536
1.4,0.19125,-1480
1.4,0.03375,-1304
1.4,0.105,-1444
1.4,0.02875,-1384
1.4,0.05125,-1464
1.4,0.05125,-1448
1.4,0.085,-1432
1.4,0.07125,-1312
1.4,0.04625,-1448
1.4,0.0125,-1548
1.4,0.01375,-1432
1.4,0.265,-1444
1.4,0.13625,-1432
1.4,0.03125,-1364
1.4,0.11875,-1420
1.4,0.0325,-1460
1.4,0.035,-1420
1.4,0.05,-1496
1.4,0.00125,-1556
1.4,0.1275,-1504
1.4,0.0575,-1396
1.4,0.06625,-1360
1.4,0.0175,-1552
1.4,0.1425,-1356
1.4,0.0925,-1416
1.4,0.12875,-1504
1.4,0.14125,-1540
1.4,0.00875,-1456
1.4,0.0925,-1504
1.4,0.02375,-1572
1.4,0.0125,-1496
1.4,0.1325,-1428
1.4,0.08375,-1512
1.4,0.03,-1384
1.4,0.05,-1420
1.4,0.0875,-1404
1.4,0.1425,-1380
1.4,0.12,-1428
1.4,0.17875,-1416
1.4,0.005,-1436
1.4,0.135,-1276
1.4,0.1125,-1532
1.4,0.07875,-1424
1.4,0.08,-1424
1.4,0.09375,-1520
1.4,0.025,-1512
1.4,0.005,-1248
1.4,0.07875,-1536
1.4,0.18375,-1436
1.4,0.0175,-1412
1.4,0.02125,-1456
1.4,0.04125,-1368
1.4,0.07125,-1484
1.4,0.03375,-1420
1.4,0.1625,-1504
1.4,0.165,-1424
1.4,0.145,-1440
1.4,0.0675,-1616
1.4,0.0925,-1416
1.4,0.0375,-1444
1.4,0.0775,-1480
1.4,0.1175,-1432
1.4,0.18,-1464
1.4,0.08,-1472
1.4,0.05875,-1444
1.4,0.2,-1472
1.4,0.07625,-1464
1.4,0.08875,-1492
1.4,0.0325,-1556
1.4,0.08625,-1404
1.4,0.00125,-1412
1.4,0.11875,-1508
1.4,0.02375,-1548
1.4,0.04625,-1460
1.4,0.10875,-1500
1.4,0.07875,-1416
1.4,0.045,-1364
1.4,0.21,-1424
1.4,0.0575,-1508
1.4,0.055,-1532
1.4,0.01125,-1512
1.4,0.01375,-1420
1.4,0.02625,-1468
1.4,0.15875,-1444
1.4,0.09625,-1588
1.4,0.06875,-1568
1.4,0.29375,-1472
1.4,0.06125,-1468
1.4,0.08625,-1472
1.4,0.1175,-1444
1.4,0.01625,-1456
1.4,0.0225,-1336
1.4,0.1975,-1560
1.4,0.17875,-1520
1.4,0.05125,-1368
1.4,0.205,-1516
1.4,0.095,-1356
1.4,0.075,-1516
1.4,0.2325,-1516
1.4,0.16625,-1376
1.4,0.3175,-1536
1.4,0.10625,-1336
1.4,0.13625,-1504
1.4,0.0225,-1420
1.4,0.09375,-1500
1.4,0.06375,-1420
1.4,0.04875,-1576
1.4,0.065,-1320
1.4,0.0675,-1292
1.4,0.12625,-1420
1.4,0.0675,-1488
1.4,0.09375,-1544
1.4,0.22,-1416
1.4,0.0475,-1584
1.4,0.07,-1372
1.4,0.03125,-1336
1.4,0.045,-1432
1.4,0.0425,-1500
1.4,0.03,-1452
1.4,0.08625,-1560
1.4,0.1075,-1436
1.4,0.11625,-1488
1.4,0.11625,-1452
1.4,0.025,-1364
1.4,0.03375,-1344
1.4,0.0225,-1448
1.4,0.035,-1500
1.4,0.26125,-1380
1.4,0.00125,-1428
1.4,0.1025,-1540
1.4,0.00625,-1352
1.4,0.0825,-1412
1.4,0.0275,-1328
1.4,0.05,-1560
1.4,0.0175,-1372
1.4,0.00875,-1368
1.4,0.15375,-1528
1.4,0.07375,-1356
1.4,0.08875,-1372
1.4,0.08875,-1400
1.4,0.15875,-1356
1.4,0.01625,-1492
1.4,0.08625,-1420
1.4,0,-1372
1.4,0.02125,-1552
1.4,0.26875,-1484
1.4,0.1,-1528
1.4,0.1,-1392
1.4,0.07125,-1540
1.4,0.21375,-1620
1.4,0.01375,-1416
1.4,0.0275,-1592
1.4,0.05125,-1356
1.4,0.22,-1492
1.4,0.08375,-1428
1.4,0.115,-1328
1.4,0.2175,-1332
1.4,0.16,-1436
1.4,0.00875,-1416
1.4,0.03375,-1532
1.4,0.09875,-1456
1.4,0.12375,-1444
1.4,0.0375,-1520
1.4,0.1275,-1496
1.4,0.15875,-1492
1.4,0.095,-1492
1.4,0.04625,-1508
1.4,0.09,-1300
1.4,0.125,-1464
1.4,0.045,-1536
1.4,0.0125,-1344
1.4,0.10625,-1520
1.4,0.0525,-1484
1.4,0.06375,-1360
1.4,0.15375,-1508
1.4,0.0275,-1308
1.4,0.17125,-1576
1.4,0.06125,-1340
1.4,0.105,-1400
1.4,0.1575,-1416
1.4,0.0775,-1472
1.4,0.1325,-1360
1.4,0.0125,-1420
1.4,0.005,-1392
1.4,0.00375,-1284
1.4,0.00375,-1380
1.4,0.06875,-1356
1.4,0.07375,-1432
1.4,0.13375,-1392
1.4,0.0625,-1340
1.4,0.185,-1452
1.4,0.05,-1484
1.4,0.1325,-1588
1.4,0.20875,-1476
1.4,0.06625,-1464
1.4,0.135,-1464
1.4,0.145,-1572
1.4,0.12625,-1444
1.4,0.03125,-1432
1.4,0.09625,-1392
1.4,0.0025,-1436
1.4,0.01375,-1424
1.4,0.0275,-1384
1.4,0.0425,-1364
1.4,0.1075,-1388
1.4,0.07875,-1320
1.4,0.07875,-1424
1.4,0.07,-1316
1.4,0.0475,-1480
1.4,0,-1404
1.4,0.06375,-1440
1.4,0.23125,-1564
1.4,0.22375,-1448
1.4,0.10625,-1300
1.4,0.0975,-1336
1.4,0.2075,-1520
1.4,0.12125,-1440
1.4,0.095,-1396
1.4,0.14625,-1448
1.4,0.0325,-1536
1.4,0.03625,-1496
1.4,0.14375,-1680
1.4,0.045,-1516
1.4,0.0125,-1408
1.4,0.01125,-1480
1.4,0.06375,-1536
1.4,0.03,-1464
1.4,0.09,-1484
1.4,0.015,-1592
1.4,0.0125,-1412
1.4,0.04625,-1476
1.4,0.06625,-1504
1.4,0.01875,-1424
1.4,0.07625,-1400
1.4,0.07125,-1596
1.4,0.1,-1504
1.4,0.19125,-1552
1.4,0.0375,-1448
1.4,0.035,-1508
1.4,0.11,-1376
1.4,0.045,-1416
1.4,0.135,-1412
1.4,0.09,-1444
1.4,0.03375,-1464
1.4,0.0425,-1576
1.4,0.01875,-1424
1.4,0.13875,-1420
1.4,0.1125,-1428
1.4,0.0725,-1512
1.4,0.03125,-1536
1.4,0.08625,-1432
1.4,0.3,-1528
1.4,0.12375,-1680
1.4,0.08125,-1340
1.4,0.0025,-1364
1.4,0.035,-1492
1.4,0.15125,-1536
1.4,0.245,-1484
1.4,0.13,-1472
1.4,0.01375,-1420
1.4,0.08125,-1444
1.4,0.1125,-1536
1.4,0.16875,-1556
1.4,0.10375,-1396
1.4,0.15,-1504
1.4,0.0875,-1304
1.4,0.1225,-1516
1.4,0.12,-1396
1.4,0.12375,-1592
1.4,0.1525,-1500
1.4,0.18875,-1572
1.4,0.19375,-1548
1.4,0.0725,-1448
1.4,0.09625,-1464
1.4,0.06375,-1504
1.4,0.00125,-1380
1.4,0.1075,-1512
1.4,0.105,-1472
1.4,0.00625,-1500
1.4,0.0425,-1528
1.4,0.00875,-1376
1.4,0.11875,-1480
1.4,0.0325,-1368
1.4,0.155,-1580
1.4,0.085,-1544
1.4,0.0125,-1308
1.4,0.04625,-1552
1.4,0.05875,-1416
1.4,0.04625,-1488
1.4,0.045,-1440
1.4,0.03875,-1456
1.4,0.20375,-1548
1.4,0.07,-1508
1.4,0.15625,-1520
1.4,0.00375,-1324
1.4,0.06875,-1488
1.4,0.00875,-1500
1.4,0.14375,-1612
1.4,0.005,-1476
1.4,0.025,-1436
1.4,0.05625,-1480
1.4,0.06375,-1372
1.4,0.06625,-1504
1.4,0.10625,-1468
1.4,0.06125,-1404
1.4,0.08125,-1428
1.4,0.065,-1360
1.4,0.235,-1336
1.4,0.16625,-1600
1.4,0.2275,-1364
1.4,0.01,-1400
1.4,0.0325,-1356
1.4,0.0325,-1388
1.4,0.00625,-1280
1.4,0.04625,-1520
1.4,0.19375,-1532
1.4,0.11375,-1376
1.4,0.05125,-1508
1.4,0.125,-1420
1.4,0.03125,-1420
1.4,0.20625,-1444
1.4,0.17375,-1492
1.4,0.04,-1432
1.4,0.0225,-1328
1.4,0.04875,-1404
1.4,0.01,-1328
1.4,0.06875,-1488
1.4,0.05625,-1468
1.4,0.02125,-1488
1.4,0.19,-1468
1.4,0.10125,-1388
1.4,0.1425,-1484
1.4,0.035,-1432
1.4,0.0425,-1296
1.4,0.08375,-1436
1.4,0.13625,-1260
1.4,0.1225,-1352
1.4,0.02375,-1308
1.4,0.10875,-1496
1.4,0.0575,-1492
1.4,0.0575,-1532
1.4,0.08375,-1352
1.4,0.09625,-1276
1.4,0.04875,-1560
1.4,0.07875,-1344
1.4,0.05125,-1360
1.4,0.03375,-1468
1.4,0.1225,-1516
1.4,0.07625,-1516
1.4,0.03625,-1480
1.4,0.105,-1416
1.4,0.04,-1528
1.4,0.08625,-1496
1.4,0.09875,-1416
1.4,0.05625,-1372
1.4,0.0925,-1448
1.4,0.2025,-1440
1.4,0.10625,-1564
1.4,0.055,-1604
1.4,0.13625,-1564
1.4,0.11125,-1412
1.4,0.06,-1504
1.4,0.02375,-1376
1.4,0.04375,-1340
1.4,0,-1440
1.4,0.12375,-1484
1.4,0.06875,-1472
1.4,0.11875,-1364
1.4,0.08,-1476
1.4,0.0475,-1424
1.4,0.31375,-1444
1.4,0.14125,-1336
1.4,0.11375,-1344
1.4,0.065,-1300
1.4,0.1075,-1440
1.4,0.025,-1608
1.4,0.16125,-1288
1.4,0.0375,-1548
1.4,0.07125,-1368
1.4,0.12125,-1360
1.4,0.01375,-1400
1.4,0.1175,-1316
1.4,0.1425,-1552
1.4,0.1025,-1412
1.4,0.01875,-1476
1.4,0.095,-1504
1.4,0.12625,-1428
1.4,0.0825,-1408
1.4,0.1175,-1536
1.4,0.01125,-1332
1.4,0.1625,-1428
1.4,0.06625,-1424
1.4,0.02,-1612
1.4,0.075,-1508
1.4,0.14625,-1464
1.4,0.1875,-1468
1.4,0.00375,-1460
1.4,0.1125,-1392
1.4,0.21625,-1592
1.4,0.0375,-1404
1.4,0.01375,-1372
1.4,0.2275,-1528
1.4,0.11375,-1516
1.4,0.19375,-1476
1.4,0.1625,-1528
1.4,0.01125,-1372
1.4,0.1275,-1292
1.4,0.09,-1352
1.4,0.0725,-1444
1.4,0.04,-1304
1.4,0.2825,-1468
1.4,0.03375,-1440
1.4,0.03375,-1592
1.4,0.0725,-1560
1.4,0.07375,-1524
1.4,0.03,-1420
1.4,0.105,-1496
1.4,0.0825,-1552
1.4,0.04625,-1384
1.4,0.01125,-1624
1.4,0.0925,-1556
1.4,0.05375,-1504
1.4,0.15625,-1480
1.4,0.0225,-1504
1.4,0.1875,-1356
1.4,0.075,-1520
1.4,0.01125,-1468
1.4,0.0625,-1464
1.4,0.07,-1496
1.4,0.14375,-1396
1.4,0.0175,-1320
1.4,0.065,-1256
1.4,0.08,-1488
1.4,0.015,-1388
1.4,0.08875,-1508
1.4,0.08,-1648
1.4,0.135,-1516
1.4,0.00875,-1340
1.4,0.12625,-1512
1.4,0.04625,-1464
1.4,0.23625,-1440
1.4,0.06375,-1504
1.4,0.04625,-1512
1.4,0.11375,-1352
1.4,0.07375,-1464
1.4,0.04125,-1320
1.4,0.07,-1384
1.4,0.0675,-1468
1.4,0.09625,-1460
1.4,0.04125,-1476
1.4,0.0175,-1364
1.4,0.06125,-1440
1.4,0.02625,-1368
1.4,0.02125,-1360
1.4,0.12375,-1436
1.4,0.04375,-1452
1.4,0.16875,-1412
1.4,0.045,-1512
1.4,0.13375,-1384
1.4,0.14125,-1492
1.4,0.11,-1488
1.4,0.055,-1428
1.4,0.02625,-1392
1.4,0.11875,-1476
1.4,0.13125,-1392
1.4,0.21125,-1560
1.4,0.10125,-1460
1.4,0.00625,-1608
1.4,0.17125,-1392
1.4,0.085,-1400
1.4,0.1375,-1388
1.4,0.0025,-1544
1.4,0.05,-1356
1.4,0.10375,-1428
1.4,0.125,-1376
1.4,0.05625,-1188
1.4,0.025,-1464
1.4,0.00375,-1424
1.4,0.00625,-1512
1.4,0.035,-1492
1.4,0.00375,-1384
1.4,0.06625,-1412
1.4,0.11625,-1500
1.4,0.1275,-1472
1.4,0.1325,-1476
1.4,0.10375,-1392
1.4,0.11,-1392
1.4,0.14125,-1524
1.4,0.01875,-1300
1.4,0.09375,-1540
1.4,0.17125,-1436
1.4,0.085,-1480
1.4,0.015,-1464
1.4,0.20875,-1348
1.4,0.11875,-1548
1.4,0.00125,-1524
1.4,0.0975,-1404
1.4,0.0825,-1348
1.4,0.0075,-1288
1.4,0.03,-1516
1.4,0.03,-1448
1.4,0.02875,-1360
1.4,0.1175,-1372
1.4,0.1,-1516
1.4,0.10625,-1400
1.4,0.17125,-1388
1.4,0.0825,-1424
1.4,0.0425,-1628
1.4,0.1425,-1608
1.4,0.025,-1392
1.4,0.09,-1488
1.4,0.13375,-1396
1.4,0.06875,-1524
1.4,0.0525,-1752
1.4,0.0125,-1532
1.4,0.15875,-1448
1.4,0.04875,-1612
1.4,0.09,-1428
1.4,0.1725,-1504
1.4,0.015,-1520
1.4,0.11375,-1456
1.4,0,-1568
1.4,0.05875,-1376
1.4,0.2125,-1432
1.4,0.12,-1392
1.4,0.0825,-1324
1.4,0.0625,-1316
1.4,0.1275,-1444
1.4,0.00875,-1480
1.4,0.14,-1508
1.4,0.12,-1504
1.4,0.01125,-1480
1.4,0.115,-1396
1.4,0.07875,-1452
1.4,0.09875,-1476
1.4,0.06875,-1492
1.4,0.05375,-1424
1.4,0.17625,-1512
1.4,0.00125,-1556
1.4,0.01125,-1368
1.4,0.16125,-1540
1.4,0.00625,-1400
1.4,0.11875,-1360
1.4,0.035,-1448
1.4,0.09375,-1312
1.4,0.00875,-1180
1.4,0.0125,-1412
1.4,0.1525,-1412
1.4,0.1075,-1596
1.4,0.05375,-1544
1.4,0.125,-1440
1.4,0.18125,-1440
1.4,0.1625,-1424
1.4,0.10875,-1320
1.4,0.1625,-1652
1.4,0.13,-1468
1.4,0.0675,-1636
1.4,0.05,-1336
1.4,0.09625,-1308
1.4,0.0125,-1432
1.4,0.0375,-1528
1.4,0.00375,-1552
1.4,0.0425,-1508
1.4,0.06375,-1580
1.4,0.02625,-1512
1.4,0.11625,-1428
1.4,0.0425,-1668
1.4,0.085,-1496
1.4,0.205,-1636
1.4,0.0125,-1332
1.4,0.03,-1428
1.4,0.05875,-1584
1.4,0.2825,-1436
1.4,0.26125,-1520
1.4,0.04875,-1484
1.4,0.19375,-1532
1.4,0.01375,-1432
1.4,0.05875,-1432
1.4,0.07125,-1592
1.4,0.02625,-1400
1.4,0.085,-1392
1.4,0.03625,-1412
1.4,0.01125,-1548
1.4,0.0775,-1480
1.4,0.06625,-1396
1.4,0.16125,-1308
1.4,0.03625,-1372
1.4,0.02375,-1456
1.4,0.08625,-1528
1.4,0.0475,-1420
1.4,0.09625,-1468
1.4,0.00625,-1464
1.4,0.0375,-1320
1.4,0.1075,-1364
1.4,0.00125,-1452
1.4,0.0675,-1392
1.4,0.13625,-1344
1.4,0.07375,-1244
1.4,0.11625,-1436
1.4,0.005,-1428
1.4,0.11625,-1440
1.4,0.03875,-1404
1.4,0.005,-1536
1.4,0.0325,-1416
1.4,0.16,-1436
1.4,0.04125,-1552
1.4,0.115,-1512
1.4,0.05,-1352
1.4,0.10875,-1596
1.4,0.125,-1328
1.4,0.07125,-1376
1.4,0.2375,-1460
1.4,0.0825,-1360
1.4,0.21875,-1528
1.4,0.0075,-1468
1.4,0.0425,-1392
1.4,0.02625,-1484
1.4,0.15375,-1516
1.4,0.04,-1536
1.4,0.04375,-1352
1.4,0.10125,-1508
1.4,0.24875,-1508
1.4,0.01875,-1524
1.4,0.02,-1508
1.4,0.1375,-1424
1.4,0.11375,-1532
1.4,0.215,-1512
1.4,0.05375,-1588
1.4,0.09125,-1520
1.4,0.12375,-1344
1.4,0.19875,-1416
1.4,0.055,-1396
1.4,0.0025,-1408
1.4,0.0575,-1456
1.4,0.24375,-1548
1.4,0.05,-1496
1.4,0.0975,-1492
1.4,0.04875,-1444
1.4,0.10875,-1324
1.4,0.05375,-1256
1.4,0.14875,-1408
1.4,0.055,-1512
1.4,0.095,-1428
1.4,0.06,-1372
1.4,0.10875,-1488
1.4,0.1925,-1384
1.4,0.0375,-1432
1.4,0.03375,-1332
1.4,0.055,-1456
1.4,0.03625,-1444
1.4,0.12625,-1508
1.4,0.02125,-1512
1.4,0.11375,-1432
1.4,0.02125,-1472
1.4,0.01125,-1544
1.4,0.0225,-1540
1.4,0.235,-1616
1.4,0.09375,-1392
1.4,0.2575,-1516
1.4,0.21875,-1512
1.4,0.00375,-1368
1.4,0.0575,-1472
1.4,0.1825,-1400
1.4,0.06125,-1384
1.4,0.1125,-1556
1.4,0.03625,-1464
1.4,0.12375,-1248
1.4,0.225,-1548
1.4,0.07375,-1660
1.4,0.03875,-1364
1.4,0.10875,-1416
1.4,0.07625,-1396
1.4,0.04625,-1456
1.4,0.00625,-1508
1.4,0.11375,-1616
1.4,0.02375,-1320
1.4,0.05875,-1436
1.4,0.17125,-1508
1.4,0.15,-1464
1.4,0.14625,-1368
1.4,0.04375,-1488
1.4,0.14875,-1372
1.4,0.18375,-1508
1.4,0.03625,-1448
1.4,0.04125,-1300
1.4,0.0425,-1344
1.4,0.06875,-1520
1.4,0.08875,-1392
1.4,0.06625,-1400
1.4,0.05125,-1488
1.4,0.01125,-1444
1.4,0.29625,-1572
1.4,0.06625,-1316
1.4,0.08375,-1332
1.4,0.07625,-1464
1.4,0.09125,-1388
1.4,0.10375,-1456
1.4,0.0325,-1496
1.4,0.0225,-1360
1.4,0.12125,-1572
1.4,0.05,-1404
1.4,0.0025,-1376
1.4,0.04625,-1440
1.4,0.09,-1368
1.4,0.12125,-1620
1.4,0.19375,-1496
1.4,0.07,-1448
1.4,0.08625,-1396
1.4,0.05125,-1512
1.4,0.25125,-1352
1.4,0.0275,-1408
1.4,0.03625,-1348
1.4,0.04375,-1400
1.4,0.055,-1484
1.4,0.01375,-1476
1.4,0.02625,-1428
1.4,0.00875,-1420
1.4,0.02625,-1548
1.4,0.1225,-1392
1.4,0.2575,-1504
1.4,0.07375,-1304
1.4,0.02625,-1528
1.4,0.05375,-1340
1.4,0.03625,-1536
1.4,0.2175,-1572
1.4,0.12125,-1308
1.4,0.0475,-1396
1.4,0.005,-1416
1.4,0.03125,-1532
1.4,0.05,-1644
1.4,0.0525,-1512
1.4,0.11625,-1348
1.4,0.0025,-1376
1.4,0.10375,-1516
1.4,0.10375,-1532
1.4,0.2475,-1436
1.4,0.025,-1388
1.4,0.0975,-1356
1.4,0.1325,-1380
1.4,0.125,-1540
1.4,0.15375,-1720
1.4,0.06875,-1404
1.4,0.13875,-1428
1.4,0.0525,-1468
1.4,0.10125,-1504
1.4,0.0075,-1484
1.4,0.02625,-1516
1.4,0.10875,-1436
1.4,0.1675,-1468
1.4,0.10875,-1344
1.4,0.21875,-1332
1.4,0.01125,-1376
1.4,0.11,-1468
1.4,0.08,-1464
1.4,0.03625,-1444
1.4,0.09,-1400
1.4,0.02125,-1584
1.4,0.2325,-1512
1.4,0.1,-1492
1.4,0.15125,-1424
1.4,0.01125,-1560
1.4,0.09875,-1480
1.4,0.20375,-1412
1.4,0.06,-1456
1.4,0.02125,-1440
1.4,0.035,-1508
1.4,0.1075,-1316
1.4,0.19,-1536
1.4,0.18125,-1460
1.4,0.12875,-1484
1.4,0.16,-1504
1.4,0.0225,-1480
1.4,0.02375,-1484
1.4,0.16125,-1532
1.4,0.0475,-1468
1.4,0.0575,-1424
1.4,0,-1348
1.4,0.06875,-1484
1.4,0.03625,-1444
1.4,0.035,-1372
1.4,0.22,-1540
1.4,0.03,-1452
1.4,0.055,-1372
1.4,0.115,-1364
1.4,0.01,-1492
1.4,0.11,-1368
1.4,0.0475,-1360
1.4,0.0225,-1376
1.4,0.05625,-1344
1.4,0.04375,-1464
1.4,0.00625,-1520
1.4,0.1025,-1576
1.4,0.02125,-1452
1.4,0.15125,-1412
1.4,0.1275,-1508
1.4,0.07375,-1484
1.4,0.1125,-1408
1.4,0.04625,-1448
1.4,0.04875,-1376
1.4,0.12625,-1508
1.4,0.1125,-1400
1.4,0.02,-1484
1.4,0.11,-1572
1.4,0.115,-1516
1.4,0.0525,-1496
1.4,0.1075,-1388
1.4,0.195,-1408
1.4,0.00625,-1492
1.4,0.08375,-1432
1.4,0.04,-1360
1.4,0.06375,-1340
1.4,0.03375,-1384
1.4,0.03125,-1444
1.4,0.10875,-1416
1.4,0.065,-1388
1.4,0.0325,-1532
1.4,0.2325,-1440
1.4,0.01625,-1568
1.4,0.00125,-1444
1.4,0.06375,-1388
1.4,0.1275,-1440
1.4,0.00375,-1416
1.4,0.2275,-1544
1.4,0.17625,-1456
1.4,0.00375,-1496
1.4,0.045,-1324
1.4,0.0475,-1468
1.4,0.02875,-1464
1.4,0.02125,-1408
1.4,0.03375,-1456
1.4,0.07125,-1412
1.4,0.115,-1504
1.4,0.1375,-1336
1.4,0.12625,-1484
1.4,0.21,-1424
1.4,0.03125,-1516
1.4,0.00125,-1308
1.4,0.00875,-1560
1.4,0.1075,-1432
1.4,0.04,-1412
1.4,0.03625,-1456
1.4,0.07375,-1524
1.4,0.03,-1280
1.4,0.05125,-1492
1.4,0.02875,-1516
1.4,0.0925,-1276
1.4,0.12875,-1396
1.4,0.14,-1516
1.4,0.1275,-1436
1.4,0.065,-1452
1.4,0.03125,-1380
1.4,0.27875,-1532
1.4,0.0375,-1444
1.4,0.1575,-1456
1.4,0.0325,-1380
1.4,0.06,-1432
1.4,0.02375,-1332
1.4,0.03,-1284
1.4,0.0425,-1424
1.4,0.0275,-1624
1.4,0.01375,-1528
1.4,0.015,-1496
1.4,0.04,-1476
1.4,0.18125,-1412
1.4,0.13875,-1484
1.4,0.07375,-1364
1.4,0.0525,-1432
1.4,0.07125,-1512
1.4,0.02,-1388
1.4,0.05875,-1328
1.4,0.09625,-1504
1.4,0.16,-1532
1.4,0.1075,-1476
1.4,0.16125,-1536
1.4,0.0925,-1448
1.4,0.01875,-1384
1.4,0.05125,-1412
1.4,0.07125,-1412
1.4,0.03375,-1412
1.4,0.105,-1428
1.4,0.2,-1508
1.4,0.01,-1440
1.4,0.11875,-1472
1.4,0.00375,-1368
1.4,0.14,-1360
1.4,0.025,-1488
1.4,0.1,-1464
1.4,0.05625,-1436
1.4,0.02,-1484
1.4,0.13625,-1444
1.4,0.03,-1400
1.4,0.00625,-1396
1.4,0.19375,-1612
1.4,0.02875,-1416
1.4,0.0275,-1460
1.4,0.14125,-1452
1.4,0.04875,-1480
1.4,0.07,-1520
1.4,0.1125,-1488
1.4,0.16,-1488
1.4,0.105,-1364
1.4,0.12,-1468
1.4,0.16375,-1504
1.4,0.13,-1336
1.4,0.0125,-1416
1.4,0.195,-1496
1.4,0.0075,-1388
1.4,0.1825,-1424
1.4,0.035,-1564
1.4,0.08375,-1404
1.4,0.04375,-1460
1.4,0.15875,-1516
1.4,0.0875,-1428
1.4,0.04875,-1376
1.4,0.085,-1420
1.4,0.0175,-1484
1.4,0.1425,-1488
1.4,0.035,-1460
1.4,0.0025,-1536
1.4,0.1425,-1556
1.4,0.07625,-1404
1.4,0.09,-1416
1.4,0.035,-1252
1.4,0.0825,-1324
1.4,0.055,-1580
1.4,0.01625,-1400
1.4,0.00625,-1336
1.4,0.155,-1460
1.4,0.15,-1532
1.4,0.05375,-1540
1.4,0.21375,-1540
1.4,0.00375,-1184
1.4,0.09125,-1616
1.4,0.0625,-1376
1.4,0.1975,-1396
1.4,0.0425,-1492
1.4,0.13125,-1448
1.4,0.1025,-1392
1.4,0.07375,-1348
1.4,0.04,-1460
1.4,0.005,-1392
1.4,0.0075,-1388
1.4,0.11875,-1432
1.4,0.0375,-1260
1.4,0.145,-1456
1.4,0.12375,-1560
1.4,0.055,-1412
1.4,0.0175,-1372
1.4,0.09125,-1408
1.4,0.215,-1596
1.4,0.0425,-1424
1.4,0.07,-1444
1.4,0.0075,-1360
1.4,0.05375,-1488
1.4,0.02875,-1376
1.4,0.08875,-1512
1.4,0.09125,-1432
1.4,0.0625,-1456
1.4,0.1575,-1532
1.4,0.12,-1540
1.4,0.075,-1392
1.4,0.02125,-1352
1.4,0.01375,-1344
1.4,0.0525,-1380
1.4,0.06375,-1464
1.4,0.135,-1488
1.4,0.1,-1452
1.4,0.16875,-1484
1.4,0.14375,-1500
1.4,0.09125,-1544
1.4,0.17625,-1528
1.4,0.07125,-1520
1.4,0.0925,-1592
1.4,0.0175,-1392
1.4,0.04125,-1456
1.4,0.2025,-1360
1.4,0.09125,-1436
1.4,0.16375,-1468
1.4,0.245,-1392
1.4,0.00125,-1276
1.4,0.14375,-1260
1.4,0.0025,-1396
1.4,0.0425,-1456
1.4,0.1925,-1632
1.4,0.01125,-1396
1.4,0.07375,-1580
1.4,0.1375,-1412
1.4,0.04625,-1440
1.4,0.005,-1452
1.4,0.14375,-1452
1.4,0.00625,-1436
1.4,0.1475,-1480
1.4,0.015,-1464
1.4,0.045,-1496
1.4,0.105,-1464
1.4,0.2075,-1472
1.4,0.0525,-1288
1.4,0.15375,-1532
1.4,0.08375,-1360
1.4,0.04875,-1404
1.4,0.0775,-1404
1.4,0.15,-1312
1.4,0.1,-1388
1.4,0.08875,-1404
1.4,0.08375,-1452
1.4,0.07875,-1444
1.4,0.05625,-1340
1.4,0.0325,-1396
1.4,0.05125,-1412
1.4,0.24,-1384
1.4,0.09625,-1424
1.4,0.1075,-1344
1.4,0.20625,-1580
1.4,0.34625,-1520
1.4,0,-1360
1.4,0.03375,-1332
1.4,0.08625,-1408
1.4,0.03875,-1376
1.4,0.035,-1508
1.4,0.11375,-1476
1.4,0.03,-1432
1.4,0.03375,-1340
1.4,0.08125,-1404
1.4,0.13125,-1516
1.4,0.2025,-1492
1.4,0.05125,-1472
1.4,0.08,-1448
1.4,0.12375,-1468
1.4,0.035,-1480
1.4,0.01375,-1332
1.4,0.02,-1420
1.4,0.08625,-1440
1.4,0.12625,-1676
1.4,0.14125,-1668
1.4,0.14,-1496
1.4,0.055,-1548
1.4,0.17,-1580
1.4,0.0325,-1336
1.4,0.0675,-1468
1.4,0.06625,-1424
1.4,0.02375,-1352
1.4,0.0625,-1516
1.4,0.065,-1348
1.4,0.0275,-1548
1.4,0.14,-1392
1.4,0.2275,-1456
1.4,0.1475,-1464
1.4,0.02125,-1500
1.4,0.04375,-1500
1.4,0.24,-1460
1.4,0.0825,-1408
1.4,0.01125,-1404
1.4,0.04875,-1552
1.4,0.13625,-1504
1.4,0.01625,-1328
1.4,0.07875,-1420
1.4,0.01125,-1320
1.4,0.15,-1520
1.4,0.03875,-1380
1.4,0.00375,-1344
1.4,0.04,-1592
1.4,0.0375,-1400
1.4,0.07125,-1432
1.4,0.04375,-1548
1.4,0.17125,-1372
1.4,0.075,-1524
1.4,0,-1344
1.4,0.05,-1328
1.4,0.06125,-1548
1.4,0.185,-1628
1.4,0.2275,-1500
1.4,0.10375,-1420
1.4,0.1225,-1412
1.4,0.17875,-1552
1.4,0.03,-1496
1.4,0.015,-1360
1.4,0.045,-1484
1.4,0.04625,-1440
1.4,0.0175,-1492
1.4,0.045,-1496
1.4,0.13875,-1452
1.4,0.065,-1604
1.4,0.09875,-1488
1.4,0.07375,-1376
1.4,0.21375,-1620
1.4,0.09875,-1408
1.4,0.0825,-1412
1.4,0.01375,-1424
1.4,0.03,-1652
1.4,0.04,-1420
1.4,0.085,-1508
1.4,0.14375,-1504
1.4,0.095,-1412
1.4,0.00625,-1532
1.4,0.04375,-1320
1.4,0.15,-1520
1.4,0.18,-1488
1.4,0.17,-1516
1.4,0.15625,-1440
1.4,0.12125,-1392
1.4,0.0225,-1396
1.4,0.0525,-1520
1.4,0.16625,-1408
1.4,0.12625,-1564
1.4,0.15,-1464
1.4,0,-1456
1.4,0.2925,-1496
1.4,0.16625,-1536
1.4,0.01625,-1460
1.4,0.0375,-1392
1.4,0.0925,-1612
1.4,0.155,-1508
1.4,0.14875,-1592
1.4,0.0375,-1476
1.4,0.165,-1500
1.4,0.175,-1412
1.4,0.0375,-1484
1.4,0.205,-1392
1.4,0.07125,-1424
1.4,0.05875,-1544
1.4,0.09125,-1324
1.4,0.005,-1468
1.4,0.03,-1492
1.4,0.00125,-1292
1.4,0.1175,-1428
1.4,0.03875,-1472
1.4,0.19875,-1568
1.4,0.0875,-1400
1.4,0.26375,-1548
1.4,0.04125,-1508
1.4,0.08,-1400
1.4,0.105,-1476
1.4,0.0075,-1608
1.4,0.32125,-1536
1.4,0.09375,-1444
1.4,0.01375,-1448
1.4,0.0075,-1460
1.4,0.1975,-1496
1.4,0.07875,-1352
1.4,0.005,-1476
1.4,0.10625,-1428
1.4,0.0125,-1448
1.4,0.0675,-1456
1.4,0.04375,-1376
1.4,0.15625,-1492
1.4,0.0225,-1316
1.4,0.04625,-1580
1.4,0.05625,-1420
1.4,0.09,-1404
1.4,0.065,-1524
1.4,0.0475,-1316
1.4,0.0025,-1472
1.4,0.0525,-1308
1.4,0.0675,-1352
1.4,0.0925,-1444
1.4,0.08,-1412
1.4,0.00875,-1360
1.4,0.19,-1552
1.4,0.12625,-1492
1.4,0.11875,-1492
1.4,0.05375,-1376
1.4,0.0175,-1496
1.4,0.0475,-1468
1.4,0.0725,-1468
1.4,0.075,-1504
1.4,0.02125,-1576
1.4,0.12125,-1532
1.4,0.1325,-1372
1.4,0.16875,-1524
1.4,0.11625,-1392
1.4,0.0525,-1464
1.4,0.00125,-1320
1.4,0.01375,-1512
1.4,0.20125,-1412
1.4,0.10625,-1340
1.4,0.04,-1312
1.4,0.085,-1428
1.4,0.08,-1424
1.4,0.025,-1404
1.4,0.1075,-1520
1.4,0.01375,-1436
1.4,0.1475,-1496
1.4,0.025,-1364
1.4,0.11625,-1508
1.4,0.06,-1624
1.4,0.14375,-1464
1.4,0.06625,-1424
1.4,0.05125,-1540
1.4,0.1275,-1400
1.4,0.20875,-1500
1.4,0.00375,-1364
1.4,0.04375,-1644
1.4,0.215,-1604
1.4,0.04875,-1520
1.4,0.05,-1420
1.4,0.03875,-1516
1.4,0.03,-1496
1.4,0.1175,-1508
1.4,0.03125,-1380
1.4,0.155,-1436
1.4,0.18875,-1420
1.4,0.2575,-1360
1.4,0.15375,-1376
1.4,0.08875,-1488
1.4,0.0875,-1508
1.4,0.23,-1560
1.4,0.0275,-1568
1.4,0.0725,-1500
1.4,0.08125,-1480
1.4,0.0075,-1456
1.4,0.11125,-1464
1.4,0.0725,-1520
1.4,0.1175,-1680
1.4,0.07,-1344
1.4,0.01,-1520
1.4,0.0425,-1480
1.4,0.00625,-1504
1.4,0.00625,-1368
1.4,0.0875,-1412
1.4,0.07125,-1520
1.4,0.09,-1488
1.4,0.13875,-1392
1.4,0.085,-1596
1.4,0.00625,-1384
1.4,0.015,-1488
1.4,0.07625,-1376
1.4,0.0325,-1460
1.4,0.305,-1520
1.4,0.06125,-1560
1.4,0.01375,-1424
1.4,0.1375,-1576
1.4,0.14625,-1364
1.4,0.09125,-1500
1.4,0.075,-1428
1.4,0.0775,-1472
1.4,0.0425,-1560
1.4,0.00125,-1512
1.4,0.09,-1448
1.4,0.055,-1380
1.4,0.1375,-1540
1.4,0.09625,-1280
1.4,0.025,-1376
1.4,0.0225,-1552
1.4,0.13375,-1392
1.4,0.105,-1392
1.4,0.23625,-1452
1.4,0.09875,-1468
1.4,0.1225,-1416
1.4,0.0775,-1540
1.4,0.14625,-1444
1.4,0.1475,-1496
1.4,0,-1392
1.4,0.005,-1460
1.4,0.02875,-1316
1.4,0.13125,-1508
1.4,0.01625,-1404
1.4,0.11875,-1492
1.4,0.07875,-1400
1.4,0.10375,-1428
1.4,0.09875,-1496
1.4,0.045,-1416
1.4,0.16125,-1428
1.4,0.035,-1476
1.4,0.005,-1444
1.4,0.02875,-1512
1.4,0.10875,-1412
1.4,0.075,-1448
1.4,0.01625,-1292
1.4,0.00125,-1372
1.4,0.04125,-1524
1.4,0.04625,-1428
1.4,0.0025,-1452
1.4,0.1,-1352
1.4,0.0775,-1476
1.4,0.0625,-1460
1.4,0.06375,-1360
1.4,0.02625,-1416
1.4,0.0475,-1480
1.4,0.015,-1288
1.4,0.07,-1516
1.4,0.1225,-1348
1.4,0.075,-1492
1.4,0.035,-1448
1.4,0.01125,-1616
1.4,0.03625,-1496
1.4,0.0875,-1368
1.4,0.01375,-1520
1.4,0.06,-1464
1.4,0.005,-1620
1.4,0.00875,-1440
1.4,0.02875,-1452
1.4,0.1725,-1472
1.4,0.095,-1416
1.4,0.015,-1604
1.4,0.085,-1428
1.4,0.06875,-1380
1.4,0.16875,-1416
1.4,0.04125,-1568
1.4,0.12875,-1464
1.4,0.0075,-1356
1.4,0.125,-1364
1.4,0.19,-1564
1.4,0.0175,-1456
1.4,0.06875,-1508
1.4,0.035,-1428
1.4,0.0775,-1588
1.4,0.1025,-1400
1.4,0.135,-1484
1.4,0.1025,-1376
1.4,0.05875,-1336
1.4,0.04875,-1468
1.4,0.03,-1608
1.4,0.185,-1484
1.4,0.00625,-1384
1.4,0.0925,-1460
1.4,0.26375,-1520
1.4,0.195,-1392
1.4,0.12625,-1532
1.4,0.10625,-1528
1.4,0.075,-1584
1.4,0.0775,-1420
1.4,0.065,-1488
1.4,0.025,-1488
1.4,0.12625,-1604
1.4,0.085,-1456
1.4,0.005,-1436
1.4,0.08375,-1548
1.4,0.12625,-1436
1.4,0.10875,-1368
1.4,0.13875,-1288
1.4,0.175,-1472
1.4,0.02375,-1372
1.4,0.05,-1512
1.4,0.11375,-1488
1.4,0.175,-1444
1.4,0.04125,-1444
1.4,0.12,-1436
1.4,0.01875,-1376
1.4,0.13125,-1496
1.4,0.2275,-1476
1.4,0.08,-1368
1.4,0.04875,-1508
1.4,0.08625,-1552
1.4,0.0125,-1476
1.4,0.14,-1392
1.4,0.14125,-1452
1.4,0.015,-1400
1.4,0.055,-1484
1.4,0.02625,-1456
1.4,0.18875,-1440
1.4,0.16375,-1448
1.4,0.0475,-1400
1.4,0.1675,-1496
1.4,0.135,-1448
1.4,0.0175,-1404
1.4,0,-1468
1.4,0.04875,-1412
1.4,0.0275,-1496
1.4,0.13625,-1428
1.4,0.12875,-1468
1.4,0.04625,-1464
1.4,0.165,-1400
1.4,0.15375,-1620
1.4,0.1925,-1464
1.4,0.14625,-1564
1.4,0.0875,-1424
1.4,0.07125,-1508
1.4,0.14,-1476
1.4,0.08375,-1548
1.4,0.0775,-1476
1.4,0.12375,-1412
1.4,0.02875,-1704
1.4,0.03875,-1620
1.4,0.025,-1352
1.4,0.09125,-1408
1.4,0.09375,-1356
1.4,0.0725,-1472
1.4,0.035,-1352
1.4,0.025,-1664
1.4,0.13125,-1540
1.4,0.10625,-1420
1.4,0.03375,-1444
1.4,0.035,-1444
1.4,0.045,-1428
1.4,0.15125,-1584
1.4,0.00375,-1396
1.4,0.065,-1352
1.4,0.00125,-1588
1.4,0.1525,-1572
1.4,0.08,-1432
1.4,0.14375,-1484
1.4,0.025,-1368
1.4,0.0925,-1516
1.4,0.07375,-1492
1.4,0.0225,-1492
1.4,0.0475,-1348
1.4,0.1225,-1512
1.4,0.02125,-1328
1.4,0.01125,-1292
1.4,0.1675,-1332
1.4,0.035,-1632
1.4,0.05125,-1408
1.4,0.12625,-1416
1.4,0.17375,-1352
1.4,0.13625,-1320
1.4,0.0575,-1456
1.4,0.19625,-1516
1.4,0.0225,-1408
1.4,0.155,-1448
1.4,0.0125,-1384
1.4,0.0725,-1396
1.4,0.0225,-1456
1.4,0.04,-1584
1.4,0.15,-1328
1.4,0.04375,-1428
1.4,0.11,-1608
1.4,0.105,-1528
1.4,0.0375,-1432
1.4,0.2325,-1348
1.4,0.09125,-1272
1.4,0.08625,-1512
1.4,0.02875,-1480
1.4,0.11375,-1452
1.4,0.0025,-1500
1.4,0.1,-1348
1.4,0.21875,-1408
1.4,0.265,-1432
1.4,0.10375,-1448
1.4,0.11125,-1448
1.4,0,-1508
1.4,0.04125,-1288
1.4,0.06625,-1440
1.4,0.0325,-1468
1.4,0.01,-1396
1.4,0.0725,-1540
1.4,0.11,-1468
1.4,0.025,-1428
1.4,0.05625,-1464
1.4,0.06375,-1440
1.4,0.02125,-1436
1.4,0.105,-1416
1.4,0.1275,-1480
1.4,0.01625,-1564
1.4,0.175,-1468
1.4,0.16,-1452
1.4,0.02,-1532
1.4,0.10625,-1548
1.4,0.13125,-1464
1.4,0.01625,-1508
1.4,0.34125,-1588
1.4,0.0225,-1484
1.4,0.05,-1496
1.4,0.19,-1576
1.4,0.1125,-1464
1.4,0.1475,-1428
1.4,0.07125,-1540
1.4,0.0775,-1464
1.4,0.18375,-1592
1.4,0.0425,-1620
1.4,0.115,-1296
1.4,0.06,-1588
1.4,0.14125,-1444
1.4,0.0125,-1444
1.4,0.0675,-1484
1.4,0.0225,-1524
1.4,0.09375,-1412
1.4,0.0775,-1628
1.4,0.03375,-1460
1.4,0.2275,-1576
1.4,0.10375,-1492
1.4,0.0675,-1528
1.4,0.00125,-1636
1.4,0.01625,-1424
1.4,0.21875,-1592
1.4,0.15,-1516
1.4,0.03625,-1372
1.4,0.04125,-1348
1.4,0.02375,-1392
1.4,0.07375,-1464
1.4,0.01,-1444
1.4,0.155,-1576
1.4,0.2425,-1636
1.4,0.0025,-1392
1.4,0.025,-1492
1.4,0.06375,-1596
1.4,0.01625,-1516
1.4,0.1125,-1368
1.4,0.025,-1568
1.4,0.03125,-1352
1.4,0.1325,-1480
1.4,0.0425,-1436
1.4,0.125,-1452
1.4,0.205,-1440
1.4,0.1225,-1452
1.4,0.0525,-1396
1.4,0.03125,-1464
1.4,0.16375,-1592
1.4,0.09875,-1388
1.4,0.2775,-1436
1.4,0.0425,-1448
1.4,0.06375,-1468
1.4,0.00625,-1468
1.4,0.0875,-1420
1.4,0.105,-1440
1.4,0.11625,-1528
1.4,0.07375,-1512
1.4,0.165,-1572
1.4,0.02375,-1472
1.4,0.02,-1404
1.4,0.0625,-1560
1.4,0.16625,-1408
1.4,0.0725,-1556
1.4,0.035,-1364
1.4,0,-1544
1.4,0.015,-1512
1.4,0.065,-1644
1.4,0.00125,-1232
1.4,0.01375,-1396
1.4,0.0125,-1396
1.4,0.01375,-1364
1.4,0.04125,-1472
1.4,0.02125,-1420
1.4,0.0325,-1448
1.4,0.025,-1400
1.4,0.0575,-1524
1.4,0.01625,-1388
1.4,0.04625,-1328
1.4,0.05375,-1428
1.4,0.08375,-1484
1.4,0.0475,-1524
1.4,0.1725,-1560
1.4,0.07125,-1628
1.4,0.09,-1540
1.4,0.1025,-1448
1.4,0.0625,-1508
1.4,0.11125,-1380
1.4,0.275,-1328
1.4,0.0625,-1364
1.4,0.12875,-1360
1.4,0.0875,-1396
1.4,0.1875,-1464
1.4,0.095,-1408
1.4,0.13125,-1488
1.4,0.00125,-1464
1.4,0.02,-1496
1.4,0.03375,-1488
1.4,0.1125,-1524
1.4,0.045,-1596
1.4,0.00375,-1496
1.4,0.08125,-1488
1.4,0.225,-1560
1.4,0.02625,-1452
1.4,0.07375,-1600
1.4,0.10875,-1484
1.4,0.1,-1392
1.4,0.0725,-1308
1.4,0.01,-1380
1.4,0.04875,-1536
1.4,0.06375,-1504
1.4,0.17125,-1496
1.4,0.0475,-1432
1.4,0.16875,-1512
1.4,0.0425,-1508
1.4,0.0725,-1340
1.4,0.12625,-1404
1.4,0.0525,-1516
1.4,0.20375,-1508
1.4,0.18625,-1364
1.4,0.03625,-1360
1.4,0.00375,-1608
1.4,0.0175,-1360
1.4,0.07,-1484
1.4,0.06375,-1380
1.4,0.1825,-1508
1.4,0.04,-1516
1.4,0.115,-1328
1.4,0.15,-1520
1.4,0.16125,-1444
1.4,0.00375,-1324
1.4,0.07875,-1492
1.4,0.09,-1440
1.4,0.00625,-1496
1.4,0.0625,-1440
1.4,0.12375,-1524
1.4,0.1325,-1508
1.4,0.0875,-1448
1.4,0.23625,-1440
1.4,0.10375,-1532
1.4,0.00625,-1524
1.4,0.29625,-1656
1.4,0,-1344
1.4,0.1075,-1368
1.4,0.20875,-1552
1.4,0.1375,-1440
1.4,0.08375,-1440
1.4,0.085,-1440
1.4,0.01125,-1456
1.4,0.1025,-1420
1.4,0.0675,-1424
1.4,0.15125,-1304
1.4,0.06125,-1356
1.4,0.03,-1552
1.4,0.07,-1432
1.4,0.0275,-1432
1.4,0.09625,-1512
1.4,0.08125,-1520
1.4,0.06875,-1324
1.4,0.08125,-1484
1.4,0.105,-1544
1.4,0.0225,-1428
1.4,0.01375,-1516
1.4,0.05,-1360
1.4,0.0325,-1396
1.4,0.2375,-1688
1.4,0.18875,-1400
1.4,0.14375,-1376
1.4,0.18375,-1424
1.4,0.245,-1584
1.4,0.03875,-1428
1.4,0.17125,-1428
1.4,0.05625,-1392
1.4,0.0275,-1468
1.4,0.0625,-1408
1.4,0.12375,-1448
1.4,0.0075,-1448
1.4,0.01875,-1456
1.4,0.1525,-1404
1.4,0.0925,-1360
1.4,0.01125,-1400
1.4,0.03875,-1504
1.4,0.10375,-1496
1.4,0.07125,-1424
1.4,0.0275,-1292
1.4,0.29125,-1600
1.4,0.0525,-1452
1.4,0.0525,-1432
1.4,0.02,-1416
1.4,0.02875,-1368
1.4,0.015,-1424
1.4,0.005,-1324
1.4,0.0325,-1464
1.4,0.01375,-1416
1.4,0.08,-1396
1.4,0.16,-1440
1.4,0.20375,-1440
1.4,0.025,-1340
1.4,0.0325,-1440
1.4,0.01875,-1592
1.4,0.10875,-1496
1.4,0.0325,-1440
1.4,0.08625,-1492
1.4,0.04375,-1440
1.4,0.1975,-1484
1.4,0.0225,-1360
1.4,0.11375,-1488
1.4,0.11375,-1288
1.4,0.08,-1408
1.4,0.1825,-1444
1.4,0.02875,-1472
1.4,0.15625,-1336
1.4,0.18,-1432
1.4,0.1225,-1452
1.4,0.105,-1440
1.4,0.12125,-1404
1.4,0.02375,-1556
1.4,0.02375,-1564
1.4,0.10625,-1500
1.4,0.035,-1456
1.4,0.085,-1556
1.4,0.04375,-1432
1.4,0.02,-1452
1.4,0.1125,-1348
1.4,0.07625,-1548
1.4,0.0575,-1404
1.4,0.04375,-1396
1.4,0.0675,-1416
1.4,0.08625,-1452
1.4,0.135,-1348
1.4,0.035,-1416
1.4,0.135,-1268
1.4,0.035,-1300
1.4,0.04125,-1416
1.4,0.20125,-1504
1.4,0.0675,-1416
1.4,0.0725,-1484
1.4,0.06,-1444
1.4,0.0825,-1408
1.4,0.15375,-1592
1.4,0.08125,-1532
1.4,0.0775,-1384
1.4,0.11,-1484
1.4,0.18,-1444
1.4,0.11125,-1508
1.4,0.05875,-1588
1.4,0.1,-1296
1.4,0.0125,-1472
1.4,0.07,-1500
1.4,0.0325,-1460
1.4,0.13125,-1520
1.4,0.17125,-1556
1.4,0.04875,-1504
1.4,0.1375,-1452
1.4,0.085,-1396
1.4,0.2075,-1608
1.4,0.025,-1548
1.4,0.025,-1408
1.4,0.1775,-1496
1.4,0.145,-1464
1.4,0.05625,-1564
1.4,0.00375,-1488
1.4,0.165,-1336
1.4,0.115,-1500
1.4,0.0775,-1392
1.4,0.1525,-1224
1.4,0.07375,-1564
1.4,0.0725,-1324
1.4,0.1575,-1320
1.4,0.05,-1272
1.4,0.05875,-1412
1.4,0.07625,-1520
1.4,0.0525,-1480
1.4,0.35125,-1568
1.4,0.03875,-1420
1.4,0.01375,-1472
1.4,0.02625,-1452
1.4,0.005,-1392
1.4,0.09375,-1396
1.4,0.04125,-1476
1.4,0.00125,-1488
1.4,0.06,-1480
1.4,0.0875,-1480
1.4,0.00375,-1364
1.4,0.01125,-1344
1.4,0.00625,-1440
1.4,0.12,-1408
1.4,0.0625,-1328
1.4,0.00375,-1476
1.4,0.05375,-1516
1.4,0.095,-1516
1.4,0.01375,-1368
1.4,0.0125,-1416
1.4,0.0775,-1552
1.4,0.04125,-1340
1.4,0.0775,-1584
1.4,0.13375,-1504
1.4,0.095,-1440
1.4,0.0275,-1544
1.4,0.1575,-1524
1.4,0.00875,-1464
1.4,0.01,-1456
1.4,0.1675,-1476
1.4,0.09875,-1524
1.4,0.21125,-1280
1.4,0.04125,-1468
1.4,0.1475,-1524
1.4,0.12125,-1448
1.4,0.00625,-1436
1.4,0.04375,-1448
1.4,0.08375,-1408
1.4,0.11125,-1456
1.4,0.08,-1448
1.4,0.01625,-1424
1.4,0.10875,-1348
1.4,0.11875,-1648
1.4,0.08,-1464
1.4,0.02125,-1452
1.4,0.08625,-1620
1.4,0.15375,-1460
1.4,0.15875,-1608
1.4,0.085,-1524
1.4,0.0375,-1520
1.4,0.005,-1348
1.4,0.00875,-1392
1.4,0.19375,-1320
1.4,0.10375,-1384
1.4,0.0475,-1328
1.4,0.09,-1456
1.4,0.08125,-1460
1.4,0.1225,-1460
1.4,0.0875,-1448
1.4,0.0625,-1500
1.4,0.05,-1384
1.4,0.155,-1372
1.4,0.04,-1340
1.4,0.2075,-1520
1.4,0.26875,-1532
1.4,0.06375,-1396
1.4,0.1075,-1332
1.4,0.015,-1432
1.4,0.1075,-1544
1.4,0.08375,-1268
1.4,0.12625,-1480
1.4,0.0125,-1388
1.4,0.1725,-1428
1.4,0.185,-1476
1.4,0.01875,-1452
1.4,0.1825,-1296
1.4,0.075,-1452
1.4,0.035,-1492
1.4,0.165,-1412
1.4,0.105,-1408
1.4,0.10125,-1552
1.4,0.18125,-1396
1.4,0.1125,-1664
1.4,0.00625,-1404
1.4,0.03,-1496
1.4,0.2825,-1504
1.4,0.1075,-1328
1.4,0.09375,-1400
1.4,0.10375,-1452
1.4,0.0475,-1504
1.4,0.0625,-1384
1.4,0.14875,-1408
1.4,0.135,-1344
1.4,0.02875,-1376
1.4,0.1525,-1548
1.4,0.10375,-1596
1.4,0.105,-1360
1.4,0.06375,-1576
1.4,0.0575,-1576
1.4,0.06625,-1472
1.4,0.04625,-1436
1.4,0.0525,-1440
1.4,0.03125,-1436
1.4,0.00625,-1504
1.4,0.08625,-1380
1.4,0.075,-1448
1.4,0.21,-1492
1.4,0.00125,-1480
1.4,0.07625,-1488
1.4,0.1675,-1356
1.4,0.06875,-1448
1.4,0.04375,-1556
1.4,0.11125,-1380
1.4,0.20625,-1468
1.4,0.0225,-1372
1.4,0.015,-1324
1.4,0.19125,-1340
1.4,0.105,-1504
1.4,0.07375,-1472
1.4,0.15875,-1380
1.4,0.13875,-1440
1.4,0.0975,-1328
1.4,0.18875,-1464
1.4,0.04875,-1504
1.4,0.17625,-1464
1.4,0.08625,-1436
1.4,0.0425,-1328
1.4,0.0575,-1536
1.4,0.03,-1480
1.4,0.09375,-1408
1.4,0.05375,-1436
1.4,0.1075,-1304
1.4,0.19,-1368
1.4,0.01625,-1508
1.4,0.01375,-1520
1.4,0.10125,-1504
1.4,0.075,-1484
1.4,0.2025,-1352
1.4,0.05125,-1396
1.4,0.18875,-1524
1.4,0.21,-1424
1.4,0.07875,-1480
1.4,0.06875,-1492
1.4,0.1375,-1288
1.4,0.07625,-1584
1.4,0.135,-1516
1.4,0.1275,-1344
1.4,0.095,-1372
1.4,0.03,-1448
1.4,0.11,-1480
1.4,0.0075,-1324
1.4,0.055,-1428
1.4,0.15875,-1440
1.4,0.09,-1436
1.4,0.01,-1456
1.4,0.145,-1380
1.4,0.1525,-1380
1.4,0.105,-1432
1.4,0.00125,-1580
1.4,0.04375,-1444
1.4,0.095,-1572
1.4,0.13,-1328
1.4,0.09,-1456
1.4,0.125,-1504
1.4,0.16375,-1268
1.4,0.03375,-1440
1.4,0.15875,-1504
1.4,0.055,-1368
1.4,0.00875,-1296
1.4,0.075,-1632
1.4,0.09625,-1424
1.4,0.03625,-1368
1.4,0.01125,-1476
1.4,0.18,-1640
1.4,0.07,-1324
1.4,0.1825,-1508
1.4,0.04375,-1484
1.4,0.08,-1508
1.4,0.165,-1596
1.4,0.08375,-1428
1.4,0.0225,-1436
1.4,0.05375,-1500
1.4,0.0825,-1564
1.4,0.13625,-1444
1.4,0.0225,-1384
1.4,0.10875,-1316
1.4,0.0825,-1452
1.4,0.07625,-1428
1.4,0.15625,-1400
1.4,0.05625,-1360
1.4,0.195,-1488
1.4,0.0075,-1444
1.4,0.03875,-1612
1.4,0.0225,-1424
1.4,0.09875,-1336
1.4,0.07875,-1516
1.4,0.0375,-1436
1.4,0.05,-1408
1.4,0.01,-1488
1.4,0.00875,-1424
1.4,0.135,-1416
1.4,0.0925,-1472
1.4,0.19875,-1444
1.4,0.07625,-1424
1.4,0.0875,-1508
1.4,0.09375,-1304
1.4,0.12,-1436
1.4,0.1375,-1444
1.4,0.21375,-1492
1.4,0.04625,-1508
1.4,0.09,-1468
1.4,0.005,-1504
1.4,0.09375,-1500
1.4,0.1425,-1476
1.4,0.01,-1616
1.4,0.11875,-1432
1.4,0.0325,-1392
1.4,0.165,-1360
1.4,0.05625,-1464
1.4,0.095,-1472
1.4,0.0525,-1336
1.4,0.16375,-1396
1.4,0.1125,-1420
1.4,0.06875,-1476
1.4,0.2275,-1480
1.4,0.04875,-1556
1.4,0.05875,-1304
1.4,0.07625,-1376
1.4,0.01625,-1432
1.4,0.01375,-1448
1.4,0.0075,-1460
1.4,0.17,-1444
1.4,0.05375,-1540
1.4,0,-1412
1.4,0.02875,-1476
1.4,0.06125,-1408
1.4,0.0125,-1344
1.4,0.20125,-1488
1.4,0.08625,-1408
1.4,0.06875,-1436
1.4,0.02625,-1484
1.4,0.13875,-1456
1.4,0.165,-1472
1.4,0.1775,-1496
1.4,0.02875,-1432
1.4,0.0975,-1540
1.4,0.04875,-1404
1.4,0.13,-1452
1.4,0.21375,-1504
1.4,0.18,-1412
1.4,0.12875,-1388
1.4,0.03625,-1552
1.4,0.17125,-1548
1.4,0.00375,-1440
1.4,0.1,-1368
1.4,0.01625,-1472
1.4,0.075,-1460
1.4,0.0125,-1540
1.4,0.135,-1388
1.4,0.07875,-1480
1.4,0.16625,-1548
1.4,0.0325,-1388
1.4,0.1275,-1420
1.4,0.04375,-1528
1.4,0.0875,-1536
1.4,0.04375,-1596
1.4,0.125,-1416
1.4,0.03125,-1584
1.4,0.01125,-1376
1.4,0.08875,-1492
1.4,0.19875,-1568
1.4,0.06625,-1220
1.4,0.115,-1548
1.4,0.065,-1400
1.4,0.11125,-1448
1.4,0.06125,-1376
1.4,0.04875,-1352
1.4,0.21875,-1536
1.4,0.02125,-1424
1.4,0.0575,-1456
1.4,0.19125,-1484
1.4,0.0225,-1420
1.4,0.07625,-1544
1.4,0.0625,-1352
1.4,0.005,-1376
1.4,0.0575,-1496
1.4,0.1825,-1400
1.4,0.01,-1576
1.4,0.03125,-1432
1.4,0.00625,-1392
1.4,0.06875,-1416
1.4,0.04,-1520
1.4,0.0475,-1552
1.4,0.02625,-1520
1.4,0.1225,-1500
1.4,0.11125,-1540
1.4,0.11125,-1492
1.4,0.02625,-1332
1.4,0.03125,-1604
1.4,0.0475,-1476
1.4,0.105,-1612
1.4,0.24125,-1424
1.4,0.145,-1452
1.4,0.0275,-1312
1.4,0.125,-1428
1.4,0.11375,-1584
1.4,0.09375,-1396
1.4,0.095,-1440
1.4,0.19625,-1436
1.4,0.15125,-1372
1.4,0.08375,-1552
1.4,0.21875,-1436
1.4,0.08375,-1412
1.4,0.04125,-1360
1.4,0.06875,-1380
1.4,0.03875,-1476
1.4,0.135,-1468
1.4,0.05375,-1452
1.4,0.02625,-1396
1.4,0.17625,-1484
1.4,0.05125,-1544
1.4,0.04625,-1500
1.4,0.04375,-1356
1.4,0.07125,-1564
1.4,0.11625,-1380
1.4,0.00625,-1388
1.4,0.265,-1508
1.4,0.11375,-1440
1.4,0.1525,-1384
1.4,0.13,-1468
1.4,0.03125,-1480
1.4,0.12625,-1540
1.4,0.095,-1492
1.4,0.1375,-1452
1.4,0.15125,-1496
1.4,0.05875,-1556
1.4,0.1425,-1656
1.4,0.00375,-1440
1.4,0.0775,-1476
1.4,0.015,-1508
1.4,0.11875,-1604
1.4,0.01875,-1440
1.4,0.00125,-1332
1.4,0.11625,-1448
1.4,0.03375,-1548
1.4,0.08,-1428
1.4,0.15625,-1460
1.4,0.12875,-1260
1.4,0.0725,-1428
1.4,0.04125,-1472
1.4,0.19875,-1468
1.4,0.02125,-1416
1.4,0.095,-1432
1.4,0.025,-1344
1.4,0.17,-1444
1.4,0.2325,-1676
1.4,0.05375,-1376
1.4,0.33375,-1688
1.4,0.0625,-1424
1.4,0.12,-1460
1.4,0.0775,-1564
1.4,0.11375,-1528
1.4,0.04375,-1500
1.4,0.03875,-1436
1.4,0.18625,-1572
1.4,0.0375,-1352
1.4,0.08125,-1376
1.4,0.06,-1336
1.4,0.02875,-1400
1.4,0.03,-1412
1.4,0.08875,-1496
1.4,0.07625,-1380
1.4,0.005,-1508
1.4,0.115,-1472
1.4,0.125,-1428
1.4,0.1375,-1472
1.4,0.06875,-1312
1.4,0.11,-1416
1.4,0.12,-1428
1.4,0.195,-1428
1.4,0.03375,-1452
1.4,0.03,-1580
1.4,0.045,-1440
1.4,0.03125,-1528
1.4,0.10375,-1460
1.4,0.04875,-1420
1.4,0.07125,-1460
1.4,0.01,-1364
1.4,0.0925,-1528
1.4,0.135,-1344
1.4,0.01875,-1504
1.4,0.0475,-1420
1.4,0.08625,-1464
1.4,0.0575,-1484
1.4,0.04125,-1468
1.4,0.00625,-1456
1.4,0.00875,-1484
1.4,0.185,-1552
1.4,0.1,-1504
1.4,0.10125,-1380
1.4,0.13,-1444
1.4,0.24625,-1496
1.4,0.14625,-1356
1.4,0.11875,-1536
1.4,0.0425,-1400
1.4,0.18,-1392
1.4,0.16375,-1528
1.4,0.2225,-1460
1.4,0.1225,-1544
1.4,0.0425,-1516
1.4,0.1025,-1380
1.4,0.08375,-1572
1.4,0.01375,-1548
1.4,0.07375,-1528
1.4,0.11375,-1520
1.4,0.16625,-1472
1.4,0.16875,-1504
1.4,0.1075,-1512
1.4,0.0175,-1608
1.4,0.10125,-1492
1.4,0.06,-1436
1.4,0.005,-1332
1.4,0.17125,-1532
1.4,0.05875,-1360
1.4,0.0175,-1424
1.4,0.19875,-1548
1.4,0.17625,-1468
1.4,0.0375,-1340
1.4,0.01,-1520
1.4,0.14625,-1512
1.4,0.085,-1472
1.4,0.0475,-1408
1.4,0.09125,-1524
1.4,0.09,-1532
1.4,0.055,-1520
1.4,0.02,-1472
1.4,0.0025,-1400
1.4,0.025,-1424
1.4,0.05625,-1372
1.4,0.07,-1380
1.4,0.22875,-1528
1.4,0.0625,-1452
1.4,0.02625,-1416
1.4,0.1675,-1464
1.4,0.155,-1480
1.4,0.135,-1348
1.4,0.065,-1448
1.4,0.0125,-1472
1.4,0.1825,-1472
1.4,0.12875,-1444
1.4,0.09125,-1352
1.4,0.06125,-1548
1.4,0.0175,-1496
1.4,0.0475,-1512
1.4,0.0425,-1312
1.4,0.03,-1384
1.4,0.00625,-1492
1.4,0.03875,-1452
1.4,0.00375,-1440
1.4,0.22625,-1412
1.4,0.11,-1424
1.4,0.00625,-1452
1.4,0.01125,-1448
1.4,0.245,-1472
1.4,0.0375,-1436
1.4,0.145,-1432
1.4,0.0575,-1364
1.4,0.0475,-1380
1.4,0.12375,-1444
1.4,0.16,-1464
1.4,0.03625,-1456
1.4,0.08,-1648
1.4,0.1175,-1448
1.4,0.1525,-1452
1.4,0.19375,-1412
1.4,0.015,-1368
1.4,0.05,-1388
1.4,0.115,-1468
1.4,0.16125,-1500
1.4,0.0475,-1368
1.4,0.10625,-1372
1.4,0.055,-1560
1.4,0.04375,-1564
1.4,0.13625,-1444
1.4,0.075,-1436
1.4,0.01,-1356
1.4,0.1525,-1464
1.4,0.00375,-1312
1.4,0.0925,-1356
1.4,0.0875,-1472
1.4,0.00125,-1308
1.4,0.0575,-1460
1.4,0.04125,-1396
1.4,0.34875,-1576
1.4,0.1425,-1436
1.4,0.04375,-1388
1.4,0.02875,-1480
1.4,0.04375,-1412
1.4,0.025,-1340
1.4,0.0625,-1416
1.4,0.085,-1368
1.4,0.11625,-1508
1.4,0.0375,-1464
1.4,0.02,-1464
1.4,0.09375,-1564
1.4,0.22625,-1480
1.4,0.10375,-1556
1.4,0.0325,-1520
1.4,0.04375,-1416
1.4,0.06,-1352
1.4,0.1525,-1500
1.4,0.0775,-1428
1.4,0.185,-1536
1.4,0.11875,-1408
1.4,0.07125,-1512
1.4,0.0525,-1220
1.4,0.1225,-1444
1.4,0.07625,-1472
1.4,0.18375,-1456
1.4,0.0075,-1476
1.4,0.03,-1328
1.4,0.05375,-1436
1.4,0.035,-1412
1.4,0.01625,-1512
1.4,0.00875,-1556
1.4,0.07375,-1344
1.4,0.0775,-1424
1.4,0.06125,-1388
1.4,0.0075,-1344
1.4,0.005,-1444
1.4,0.1475,-1532
1.4,0.00625,-1592
1.4,0.06,-1396
1.4,0.01375,-1404
1.4,0.01,-1452
1.4,0.05875,-1416
1.4,0.10875,-1416
1.4,0.05125,-1500
1.4,0.01,-1496
1.4,0.1225,-1356
1.4,0.05625,-1376
1.4,0.1,-1440
1.4,0.1375,-1464
1.4,0.1625,-1484
1.4,0.06625,-1616
1.4,0.13375,-1448
1.4,0.05375,-1368
1.4,0.23375,-1448
1.4,0.0275,-1496
1.4,0.0225,-1480
1.4,0.04625,-1376
1.4,0.0725,-1520
1.4,0.0725,-1460
1.4,0.145,-1432
1.4,0.05625,-1656
1.4,0.14625,-1392
1.4,0.11625,-1416
1.4,0.15375,-1484
1.4,0.1375,-1332
1.4,0.02375,-1440
1.4,0.0875,-1316
1.4,0.03375,-1304
1.4,0.05375,-1576
1.4,0.1,-1396
1.4,0.05625,-1472
1.4,0.0775,-1316
1.4,0.10125,-1400
1.4,0.1125,-1368
1.4,0.08625,-1488
1.4,0.05375,-1608
1.4,0.08625,-1376
1.4,0.01875,-1408
1.4,0.0875,-1404
1.4,0.0525,-1296
1.4,0.02,-1360
1.4,0.20625,-1424
1.4,0.025,-1500
1.4,0.00625,-1416
1.4,0.12875,-1428
1.4,0.24875,-1656
1.4,0.12125,-1564
1.4,0.06625,-1504
1.4,0.09875,-1428
1.4,0.0675,-1472
1.4,0.045,-1540
1.4,0.0875,-1368
1.4,0.14625,-1628
1.4,0.17,-1652
1.4,0.09,-1516
1.4,0.0975,-1508
1.4,0.02875,-1332
1.4,0.06625,-1608
1.4,0.03375,-1456
1.4,0.03,-1340
1.4,0.0575,-1592
1.4,0.13375,-1548
1.4,0.12125,-1412
1.4,0.08,-1480
1.4,0.01,-1556
1.4,0.02875,-1588
1.4,0.01,-1516
1.4,0.02625,-1292
1.4,0.17625,-1376
1.4,0.10625,-1392
1.4,0.16625,-1540
1.4,0.055,-1392
1.4,0.02,-1408
1.4,0.175,-1576
1.4,0.1175,-1364
1.4,0.005,-1508
1.4,0.16625,-1432
1.4,0.0925,-1412
1.4,0.0575,-1436
1.4,0.0425,-1544
1.4,0.11375,-1460
1.4,0.12,-1440
1.4,0.01375,-1460
1.4,0.07375,-1388
1.4,0.10125,-1544
1.4,0.00625,-1456
1.4,0.01875,-1564
1.4,0.01375,-1456
1.4,0.015,-1436
1.4,0.01125,-1460
1.4,0.045,-1480
1.4,0.09,-1508
1.4,0.08,-1352
1.4,0.13375,-1396
1.4,0.065,-1556
1.4,0.10875,-1496
1.4,0.07,-1444
1.4,0.145,-1396
1.4,0.0075,-1420
1.4,0.01125,-1420
1.4,0.0625,-1416
1.4,0.0325,-1424
1.4,0.08125,-1436
1.4,0.15125,-1488
1.4,0.1325,-1492
1.4,0.00375,-1376
1.4,0.11875,-1380
1.4,0.105,-1468
1.4,0.1075,-1576
1.4,0.04125,-1444
1.4,0.07125,-1496
1.4,0.03125,-1496
1.4,0,-1500
1.4,0.09625,-1532
1.4,0.15875,-1532
1.4,0.025,-1356
1.4,0.025,-1408
1.4,0.13,-1468
1.4,0.13375,-1388
1.4,0.01,-1464
1.4,0.02125,-1576
1.4,0.0275,-1384
1.4,0.0575,-1400
1.4,0.085,-1476
1.4,0.10625,-1532
1.4,0.01625,-1356
1.4,0.0775,-1496
1.4,0.0825,-1496
1.4,0.14625,-1416
1.4,0.035,-1488
1.4,0.08375,-1424
1.4,0.1925,-1380
1.4,0.01,-1396
1.4,0.05125,-1392
1.4,0.14,-1428
1.4,0.05625,-1496
1.4,0.08625,-1444
1.4,0.22375,-1528
1.4,0,-1432
1.4,0.0175,-1392
1.4,0.3225,-1608
1.4,0.06625,-1400
1.4,0.08,-1520
1.4,0.1975,-1464
1.4,0.035,-1432
1.4,0.155,-1396
1.4,0.02625,-1352
1.4,0.1375,-1312
1.4,0.25875,-1544
1.4,0.12,-1484
1.4,0.15875,-1296
1.4,0.07875,-1420
1.4,0.08375,-1732
1.4,0.08875,-1456
1.4,0.09375,-1380
1.4,0.18125,-1472
1.4,0.025,-1340
1.4,0.245,-1524
1.4,0.0125,-1456
1.4,0.2125,-1412
1.4,0.11375,-1440
1.4,0.00625,-1568
1.4,0.02875,-1408
1.4,0.08125,-1468
1.4,0.09375,-1420
1.4,0.09875,-1452
1.4,0.01875,-1448
1.4,0.01125,-1468
1.4,0.0525,-1568
1.4,0.035,-1460
1.4,0.07,-1396
1.4,0.0625,-1460
1.4,0.0425,-1384
1.4,0.1325,-1416
1.4,0.0775,-1336
1.4,0.02375,-1432
1.4,0.1525,-1420
1.4,0.0475,-1364
1.4,0.0475,-1388
1.4,0.03625,-1424
1.4,0.0825,-1484
1.4,0.1275,-1468
1.4,0.05875,-1496
1.4,0.06125,-1476
1.4,0.1375,-1464
1.4,0.05,-1504
1.4,0.14875,-1412
1.4,0.095,-1460
1.4,0.06625,-1384
1.4,0.10375,-1560
1.4,0.04,-1332
1.4,0.12875,-1344
1.4,0.0775,-1448
1.4,0.0825,-1536
1.4,0.09375,-1484
1.4,0.12625,-1340
1.4,0.02875,-1664
1.4,0.005,-1440
1.4,0.10625,-1420
1.4,0.01375,-1344
1.4,0.06,-1432
1.4,0.06625,-1448
1.4,0.05,-1448
1.4,0.07625,-1476
1.4,0.09875,-1464
1.4,0.005,-1464
1.4,0.04875,-1360
1.4,0.025,-1448
1.4,0.01125,-1404
1.4,0.09125,-1512
1.4,0.015,-1456
1.4,0.15625,-1580
1.4,0.0375,-1608
1.4,0.15125,-1548
1.4,0.1025,-1288
1.4,0.12375,-1424
1.4,0.12,-1484
1.4,0.145,-1456
1.4,0.01625,-1432
1.4,0.13625,-1532
1.4,0.0225,-1468
1.4,0.07375,-1536
1.4,0.0075,-1340
1.4,0.08375,-1548
1.4,0.0675,-1460
1.4,0.03625,-1440
1.4,0.09625,-1508
1.4,0.025,-1524
1.4,0.10375,-1380
1.4,0.14375,-1468
1.4,0.03625,-1464
1.4,0.07125,-1412
1.4,0.03625,-1516
1.4,0.0575,-1528
1.4,0.275,-1572
1.4,0.10625,-1496
1.4,0.06875,-1388
1.4,0.07375,-1308
1.4,0.11625,-1468
1.4,0.07875,-1452
1.4,0.04875,-1296
1.4,0.035,-1472
1.4,0.19,-1604
1.4,0.09125,-1460
1.4,0.01,-1480
1.4,0.05,-1464
1.4,0.0825,-1608
1.4,0.11625,-1432
1.4,0.02,-1500
1.4,0.26125,-1460
1.4,0.17,-1548
1.4,0.1075,-1380
1.4,0.06875,-1404
1.4,0.0425,-1508
1.4,0.0225,-1372
1.4,0.0975,-1264
1.4,0.0775,-1568
1.4,0.02125,-1476
1.4,0.105,-1480
1.4,0.085,-1356
1.4,0.2125,-1428
1.4,0.0425,-1492
1.4,0.01875,-1340
1.4,0.01,-1440
1.4,0.09125,-1292
1.4,0.065,-1548
1.4,0.0725,-1436
1.4,0.0025,-1432
1.4,0.18,-1516
1.4,0.01125,-1428
1.4,0.07625,-1468
1.4,0.28625,-1544
1.4,0.065,-1540
1.4,0.12625,-1552
1.4,0.02125,-1332
1.4,0.065,-1460
1.4,0.0825,-1504
1.4,0.17375,-1424
1.4,0.2925,-1460
1.4,0.02875,-1424
1.4,0.01125,-1416
1.4,0.045,-1472
1.4,0.0975,-1420
1.4,0.03625,-1368
1.4,0.01625,-1392
1.4,0.15625,-1388
1.4,0.0325,-1492
1.4,0.1375,-1548
1.4,0.08625,-1520
1.4,0.10125,-1452
1.4,0.09875,-1620
1.4,0.005,-1524
1.4,0.01,-1436
1.4,0.08375,-1340
1.4,0.00125,-1432
1.4,0.005,-1508
1.4,0.0675,-1532
1.4,0.1925,-1552
1.4,0.09125,-1520
1.4,0.03625,-1480
1.4,0.175,-1412
1.4,0.13625,-1484
1.4,0.04875,-1356
1.4,0.02875,-1508
1.4,0.03625,-1336
1.4,0.01125,-1472
1.4,0.16,-1364
1.4,0.1325,-1428
1.4,0.105,-1404
1.4,0.13875,-1500
1.4,0.05375,-1464
1.4,0.02125,-1360
1.4,0.20375,-1520
1.4,0.085,-1296
1.4,0.0625,-1508
1.4,0.13,-1572
1.4,0.09,-1468
1.4,0.19625,-1444
1.4,0.02375,-1404
1.4,0.03875,-1452
1.4,0.0975,-1520
1.4,0.0875,-1544
1.4,0.01125,-1468
1.4,0.01375,-1484
1.4,0.01625,-1512
1.4,0.1975,-1516
1.4,0.01375,-1344
1.4,0.21,-1424
1.4,0.2075,-1460
1.4,0.05375,-1472
1.4,0.0825,-1384
1.4,0.00375,-1568
1.4,0.06875,-1268
1.4,0.07375,-1640
1.4,0.13875,-1536
1.4,0.10375,-1416
1.4,0.045,-1528
1.4,0.0075,-1600
1.4,0.01125,-1404
1.4,0.06125,-1292
1.4,0.03,-1480
1.4,0.20375,-1340
1.4,0.1425,-1496
1.4,0.07125,-1612
1.4,0.06,-1404
1.4,0.02125,-1520
1.4,0.11875,-1440
1.4,0.03125,-1356
1.4,0.11875,-1492
1.4,0.14375,-1516
1.4,0.0175,-1476
1.4,0.05,-1544
1.4,0.05,-1368
1.4,0.07125,-1528
1.4,0.035,-1388
1.4,0.03375,-1444
1.4,0.1825,-1484
1.4,0.035,-1444
1.4,0.04375,-1464
1.4,0.0475,-1364
1.4,0.1075,-1612
1.4,0.0675,-1432
1.4,0.11625,-1632
1.4,0.1775,-1396
1.4,0.02,-1560
1.4,0.135,-1464
1.4,0.04125,-1260
1.4,0.155,-1708
1.4,0.03,-1468
1.4,0.22875,-1604
1.4,0.1875,-1396
1.4,0.005,-1316
1.4,0.14875,-1412
1.4,0.0425,-1412
1.4,0.005,-1408
1.4,0.125,-1564
1.4,0.06375,-1444
1.4,0.1225,-1628
1.4,0.105,-1512
1.4,0.04375,-1352
1.4,0.2225,-1492
1.4,0.22125,-1568
1.4,0.06,-1460
1.4,0.0225,-1332
1.4,0.17375,-1444
1.4,0.015,-1448
1.4,0.00375,-1476
1.4,0.10125,-1496
1.4,0.075,-1424
1.4,0.0375,-1488
1.4,0.2275,-1588
1.4,0.0025,-1340
1.4,0.1225,-1480
1.4,0.18125,-1460
1.4,0.04375,-1592
1.4,0.0675,-1460
1.4,0.06375,-1464
1.4,0.0525,-1388
1.4,0.07,-1592
1.4,0.09375,-1496
1.4,0.08125,-1332
1.4,0.07375,-1392
1.4,0.13,-1472
1.4,0.105,-1468
1.4,0.0025,-1320
1.4,0.24875,-1404
1.4,0.03125,-1600
1.4,0.1125,-1404
1.4,0.05,-1552
1.4,0.0325,-1480
1.4,0.06125,-1452
1.4,0.17875,-1612
1.4,0.1925,-1512
1.4,0.07125,-1512
1.4,0.08625,-1452
1.4,0.0775,-1440
1.4,0.1525,-1532
1.4,0.08875,-1440
1.4,0.00375,-1460
1.4,0.0825,-1444
1.4,0.1825,-1420
1.4,0.11375,-1516
1.4,0.03875,-1456
1.4,0.01875,-1368
1.4,0.14875,-1316
1.4,0.02125,-1468
1.4,0.035,-1424
1.4,0.04,-1436
1.4,0.21,-1488
1.4,0.1,-1512
1.4,0.08625,-1340
1.4,0.1825,-1492
1.4,0.085,-1492
1.4,0.20125,-1436
1.4,0.03875,-1368
1.4,0.3,-1584
1.4,0.12,-1520
1.4,0.13375,-1544
1.4,0.1675,-1440
1.4,0.0675,-1332
1.4,0.055,-1440
1.4,0.1225,-1376
1.4,0.01875,-1416
1.4,0.0625,-1536
1.4,0.0575,-1488
1.4,0.00875,-1468
1.4,0.065,-1452
1.4,0.04875,-1384
1.4,0.1675,-1480
1.4,0.00875,-1456
1.4,0.0225,-1516
1.4,0.00125,-1480
1.4,0.1625,-1476
1.4,0.05625,-1448
1.4,0.0125,-1484
1.4,0.05375,-1468
1.4,0.04625,-1408
1.4,0.035,-1532
1.4,0.04625,-1476
1.4,0.06625,-1516
1.4,0.01375,-1524
1.4,0.04375,-1396
1.4,0,-1324
1.4,0.04,-1608
1.4,0.01125,-1400
1.4,0.0125,-1448
1.4,0.01625,-1428
1.4,0.16875,-1512
1.4,0.01125,-1460
1.4,0.11875,-1288
1.4,0.1,-1424
1.4,0.01875,-1420
1.4,0.09375,-1552
1.4,0.06,-1452
1.4,0.06125,-1452
1.4,0.02375,-1608
1.4,0.07625,-1544
1.4,0.00875,-1396
1.4,0.14125,-1504
1.4,0.0075,-1612
1.4,0.10125,-1496
1.4,0.0975,-1360
1.4,0.0125,-1352
1.4,0.17,-1380
1.4,0.015,-1248
1.4,0.1525,-1488
1.4,0.07,-1608
1.4,0.11,-1424
1.4,0.05875,-1400
1.4,0.0275,-1432
1.4,0.1075,-1336
1.4,0.15875,-1384
1.4,0.00625,-1444
1.4,0.0775,-1312
1.4,0.07375,-1416
1.4,0.05,-1412
1.4,0.03,-1424
1.4,0.11625,-1524
1.4,0.02875,-1540
1.4,0.165,-1432
1.4,0.0125,-1344
1.4,0.19375,-1400
1.4,0.03625,-1424
1.4,0.07,-1576
1.4,0.08,-1408
1.4,0.0675,-1384
1.4,0.035,-1428
1.4,0.06375,-1428
1.4,0.11125,-1476
1.4,0.01375,-1472
1.4,0.01875,-1540
1.4,0.01,-1432
1.4,0.0225,-1356
1.4,0.0725,-1408
1.4,0.10375,-1472
1.4,0.24,-1384
1.4,0.0125,-1388
1.4,0.07,-1380
1.4,0.0425,-1480
1.4,0.1325,-1444
1.4,0.025,-1372
1.4,0.045,-1436
1.4,0.075,-1440
1.4,0.1975,-1448
1.4,0.0375,-1320
1.4,0.11125,-1356
1.4,0.15875,-1368
1.4,0.15125,-1496
1.4,0.045,-1420
1.4,0.09125,-1428
1.4,0.1075,-1616
1.4,0.16875,-1472
1.4,0.015,-1360
1.4,0.005,-1364
1.4,0.02125,-1456
1.4,0.11875,-1416
1.4,0.03875,-1380
1.4,0.1275,-1308
1.4,0.03625,-1448
1.4,0.08625,-1388
1.4,0.12,-1332
1.4,0.00125,-1352
1.4,0.04375,-1384
1.4,0.0775,-1492
1.4,0.02375,-1484
1.4,0.1925,-1356
1.4,0.055,-1464
1.4,0.0325,-1352
1.4,0.1925,-1460
1.4,0.0275,-1408
1.4,0.09625,-1456
1.4,0.1375,-1356
1.4,0.07875,-1496
1.4,0.08625,-1504
1.4,0.165,-1452
1.4,0.03125,-1632
1.4,0.025,-1460
1.4,0.0075,-1496
1.4,0.075,-1504
1.4,0.12375,-1520
1.4,0.23375,-1408
1.4,0.03125,-1500
1.4,0.0575,-1428
1.4,0.0375,-1568
1.4,0.0225,-1460
1.4,0.17375,-1684
1.4,0.02375,-1368
1.4,0.1075,-1472
1.4,0.135,-1472
1.4,0.0725,-1416
1.4,0.0675,-1468
1.4,0.0125,-1416
1.4,0.155,-1448
1.4,0.00125,-1440
1.4,0.135,-1432
1.4,0.04375,-1464
1.4,0.08875,-1508
1.4,0.17125,-1756
1.4,0.0675,-1484
1.4,0.1275,-1604
1.4,0.1525,-1516
1.4,0.03,-1468
1.4,0.22,-1476
1.4,0.04375,-1356
1.4,0.225,-1436
1.4,0.00875,-1432
1.4,0.0025,-1460
1.4,0.0575,-1444
1.4,0.08125,-1364
1.4,0.045,-1584
1.4,0.16375,-1500
1.4,0.1,-1460
1.4,0.02125,-1324
1.4,0.04,-1540
1.4,0.0775,-1472
1.4,0.135,-1432
1.4,0.05375,-1456
1.4,0.06625,-1452
1.4,0.0925,-1316
1.4,0.1075,-1284
1.4,0.155,-1620
1.4,0.075,-1364
1.4,0.04125,-1328
1.4,0.02875,-1336
1.4,0.24,-1368
1.4,0.15625,-1580
1.4,0.0275,-1532
1.4,0.13375,-1500
1.4,0.04,-1464
1.4,0.1125,-1440
1.4,0.01375,-1360
1.4,0.025,-1488
1.4,0.095,-1708
1.4,0.085,-1572
1.4,0.1075,-1392
1.4,0.125,-1388
1.4,0.0475,-1424
1.4,0.12,-1460
1.4,0.2175,-1508
1.4,0.0625,-1312
1.4,0.0525,-1332
1.4,0.07375,-1416
1.4,0.09125,-1396
1.4,0.0325,-1324
1.4,0.095,-1460
1.4,0.17875,-1596
1.4,0.10875,-1472
1.4,0.08875,-1620
1.4,0.04125,-1532
1.4,0.03625,-1460
1.4,0.11125,-1500
1.4,0.0775,-1464
1.4,0.23,-1552
1.4,0.0975,-1612
1.4,0.0875,-1336
1.4,0.13875,-1468
1.4,0.055,-1404
1.4,0.09,-1380
1.4,0.0575,-1440
1.4,0.0975,-1528
1.4,0.13,-1580
1.4,0.115,-1520
1.4,0.1125,-1308
1.4,0.055,-1396
1.4,0.185,-1520
1.4,0.1325,-1372
1.4,0.17375,-1372
1.4,0.05625,-1404
1.4,0.0925,-1468
1.4,0.0825,-1452
1.4,0.02625,-1360
1.4,0.22375,-1452
1.4,0.1325,-1632
1.4,0.0125,-1328
1.4,0.18125,-1512
1.4,0.1,-1412
1.4,0.19,-1580
1.4,0.01125,-1600
1.4,0.01375,-1432
1.4,0.03875,-1276
1.4,0.1,-1464
1.4,0.035,-1420
1.4,0.05875,-1556
1.4,0.02375,-1412
1.4,0.06625,-1400
1.4,0.0875,-1464
1.4,0.09125,-1436
1.4,0.01875,-1484
1.4,0.08,-1488
1.4,0.065,-1600
1.4,0.14125,-1556
1.4,0.08625,-1404
1.4,0.0875,-1488
1.4,0.05375,-1340
1.4,0.18125,-1408
1.4,0.06125,-1432
1.4,0.0725,-1496
1.4,0.035,-1360
1.4,0.09625,-1440
1.4,0.1525,-1560
1.4,0.19875,-1508
1.4,0.14,-1644
1.4,0.05625,-1516
1.4,0.1025,-1528
1.4,0.14375,-1484
1.4,0.1825,-1416
1.4,0.04375,-1272
1.4,0.16625,-1344
1.4,0.005,-1396
1.4,0.03125,-1540
1.4,0.14625,-1496
1.4,0.01875,-1568
1.4,0.04875,-1572
1.4,0.0425,-1504
1.4,0.03125,-1508
1.4,0.0375,-1488
1.4,0.1875,-1484
1.4,0.2,-1408
1.4,0.04,-1460
1.4,0.1325,-1588
1.4,0.09875,-1480
1.4,0.18125,-1456
1.4,0.125,-1304
1.4,0.16625,-1388
1.4,0.05875,-1408
1.4,0.04375,-1484
1.4,0.02,-1520
1.4,0.05375,-1360
1.4,0.02125,-1480
1.4,0.14,-1492
1.4,0.015,-1428
1.4,0.03375,-1328
1.4,0.16625,-1468
1.4,0.13,-1564
1.4,0.155,-1468
1.4,0.02,-1476
1.4,0.08125,-1400
1.4,0.03,-1464
1.4,0.04,-1424
1.4,0.00125,-1528
1.4,0.095,-1496
1.4,0.045,-1408
1.4,0.0375,-1328
1.4,0.02375,-1340
1.4,0.065,-1516
1.4,0.04,-1508
1.4,0.08375,-1420
1.4,0.1625,-1504
1.4,0.13625,-1288
1.4,0.075,-1360
1.4,0.01875,-1412
1.4,0.0675,-1556
1.4,0.26625,-1536
1.4,0.04125,-1484
1.4,0.055,-1452
1.4,0.11875,-1372
1.4,0.025,-1584
1.4,0.20875,-1432
1.4,0.17125,-1408
1.4,0.05625,-1728
1.4,0.015,-1352
1.4,0.03625,-1440
1.4,0.1375,-1344
1.4,0.09,-1564
1.4,0.0375,-1316
1.4,0.10125,-1428
1.4,0.02375,-1428
1.4,0.05125,-1292
1.4,0.105,-1428
1.4,0.15375,-1396
1.4,0.035,-1348
1.4,0.10125,-1420
1.4,0.0225,-1484
1.4,0.0225,-1464
1.4,0.17375,-1536
1.4,0.0075,-1492
1.4,0.02875,-1352
1.4,0.1175,-1492
1.4,0.1175,-1452
1.4,0.1425,-1412
1.4,0.03875,-1496
1.4,0.15625,-1476
1.4,0.1775,-1484
1.4,0,-1352
1.4,0.0925,-1396
1.4,0.15375,-1452
1.4,0.095,-1448
1.4,0.045,-1424
1.4,0.02,-1440
1.4,0.18,-1452
1.4,0.00375,-1404
1.4,0.03,-1280
1.4,0.06625,-1488
1.4,0.035,-1416
1.4,0.0425,-1540
1.4,0.18,-1640
1.4,0.05875,-1552
1.4,0.00375,-1528
1.4,0.06875,-1400
1.4,0.11625,-1512
1.4,0.05125,-1488
1.4,0.1625,-1452
1.4,0.045,-1392
1.4,0.05,-1516
1.4,0.1075,-1484
1.4,0.02,-1272
1.4,0.07375,-1644
1.4,0.10125,-1388
1.4,0.1275,-1488
1.4,0.1025,-1368
1.4,0.04,-1480
1.4,0.00625,-1412
1.4,0.11875,-1424
1.4,0.03,-1504
1.4,0.04375,-1336
1.4,0.0025,-1460
1.4,0.1275,-1456
1.4,0.0125,-1528
1.4,0.15375,-1592
1.4,0.015,-1436
1.4,0.12,-1432
1.4,0.0625,-1536
1.4,0.10125,-1364
1.4,0.14625,-1460
1.4,0.01375,-1552
1.4,0.1975,-1388
1.4,0.1125,-1324
1.4,0.16625,-1468
1.4,0.08125,-1444
1.4,0.0625,-1396
1.4,0.11,-1464
1.4,0.25625,-1528
1.4,0.00375,-1384
1.4,0.03,-1276
1.4,0.005,-1484
1.4,0.10375,-1488
1.4,0.06625,-1400
1.4,0.0725,-1444
1.4,0.08,-1624
1.4,0.1225,-1420
1.4,0.0425,-1368
1.4,0.0625,-1516
1.4,0.10375,-1412
1.4,0.0175,-1524
1.4,0.05625,-1576
1.4,0.00625,-1372
1.4,0.06375,-1352
1.4,0.22875,-1392
1.4,0.0575,-1332
1.4,0.17875,-1404
1.4,0.01375,-1388
1.4,0.0925,-1384
1.4,0.02875,-1440
1.4,0.03625,-1436
1.4,0.03875,-1344
1.4,0.09,-1564
1.4,0.03875,-1456
1.4,0.06625,-1400
1.4,0.05,-1376
1.4,0.0875,-1348
1.4,0.09125,-1460
1.4,0.085,-1380
1.4,0.1,-1392
1.4,0.02625,-1404
1.4,0.04875,-1448
1.4,0.05875,-1568
1.4,0.24375,-1452
1.4,0.05625,-1500
1.4,0.0425,-1428
1.4,0.07,-1592
1.4,0.00375,-1588
1.4,0.17,-1432
1.4,0.1125,-1596
1.4,0.0025,-1528
1.4,0.04875,-1572
1.4,0.03875,-1432
1.4,0.00625,-1648
1.4,0.1075,-1504
1.4,0.04875,-1512
1.4,0.02625,-1392
1.4,0.04875,-1504
1.4,0.045,-1508
1.4,0.015,-1520
1.4,0.07125,-1692
1.4,0.005,-1380
1.4,0.24875,-1616
1.4,0.11,-1328
1.4,0.02,-1472
1.4,0.02625,-1408
1.4,0.2075,-1508
1.4,0.07375,-1388
1.4,0.03125,-1380
1.4,0.09625,-1240
1.4,0.1025,-1548
1.4,0.0075,-1312
1.4,0.0775,-1404
1.4,0.07875,-1344
1.4,0.05,-1496
1.4,0.07125,-1352
1.4,0.00375,-1504
1.4,0.00125,-1468
1.4,0.07,-1412
1.4,0.005,-1408
1.4,0.025,-1376
1.4,0.055,-1428
1.4,0.09375,-1552
1.4,0.105,-1412
1.4,0.18125,-1340
1.4,0.1125,-1536
1.4,0.21375,-1504
1.4,0.11625,-1384
1.4,0.12625,-1448
1.4,0.00875,-1524
1.4,0.005,-1428
1.4,0.06,-1372
1.4,0.11875,-1460
1.4,0.06625,-1524
1.4,0.17,-1560
1.4,0.0225,-1396
1.4,0.075,-1648
1.4,0.10375,-1428
1.4,0.0625,-1524
1.4,0.0675,-1468
1.4,0.19125,-1468
1.4,0.09125,-1408
1.4,0.04375,-1328
1.4,0.2375,-1528
1.4,0.035,-1532
1.4,0.12,-1408
1.4,0.0425,-1496
1.4,0.0225,-1376
1.4,0.055,-1404
1.4,0.0275,-1544
1.4,0.0475,-1324
1.4,0.1425,-1596
1.4,0.01125,-1468
1.4,0.02125,-1412
1.4,0.0025,-1456
1.4,0.1375,-1484
1.4,0.1375,-1384
1.4,0.07625,-1524
1.4,0.05375,-1368
1.4,0.05,-1372
1.4,0.18125,-1632
1.4,0.09625,-1472
1.4,0.07125,-1524
1.4,0.27875,-1636
1.4,0.00875,-1488
1.4,0.04875,-1368
1.4,0.055,-1460
1.4,0.01625,-1400
1.4,0.0225,-1508
1.4,0.13875,-1468
1.4,0.06875,-1208
1.4,0.20625,-1464
1.4,0.01875,-1428
1.4,0.10625,-1536
1.4,0.0275,-1460
1.4,0.17,-1448
1.4,0.09125,-1340
1.4,0.06875,-1392
1.4,0.07125,-1536
1.4,0.04625,-1380
1.4,0.0475,-1520
1.4,0.0825,-1400
1.4,0.185,-1564
1.4,0.0075,-1324
1.4,0.155,-1504
1.4,0.14875,-1328
1.4,0.0775,-1356
1.4,0.16375,-1480
1.4,0.02125,-1396
1.4,0.15,-1424
1.4,0.06,-1600
1.4,0.09875,-1360
1.4,0.09375,-1468
1.4,0.05125,-1400
1.4,0.00625,-1352
1.4,0.0875,-1344
1.4,0.2325,-1480
1.4,0.10625,-1448
1.4,0.01875,-1380
1.4,0.01125,-1432
1.4,0.09875,-1576
1.4,0.06875,-1420
1.4,0.17875,-1444
1.4,0.0225,-1512
1.4,0.04375,-1404
1.4,0.09,-1464
1.4,0.00375,-1408
1.4,0.01875,-1468
1.4,0.17625,-1468
1.4,0.135,-1568
1.4,0.01375,-1548
1.4,0.14125,-1332
1.4,0.25625,-1536
1.4,0.0175,-1404
1.4,0.25375,-1580
1.4,0.15375,-1468
1.4,0.0175,-1324
1.4,0.00125,-1344
1.4,0.185,-1420
1.4,0.12125,-1396
1.4,0.1125,-1656
1.4,0.065,-1436
1.4,0.08375,-1388
1.4,0.04125,-1460
1.4,0.01375,-1500
1.4,0.0575,-1504
1.4,0.1125,-1488
1.4,0.06375,-1380
1.4,0.1475,-1584
1.4,0.19125,-1464
1.4,0.04625,-1516
1.4,0.01875,-1372
1.4,0.12625,-1476
1.4,0.0525,-1364
1.4,0.015,-1384
1.4,0.0675,-1224
1.4,0.2025,-1372
1.4,0.055,-1544
1.4,0.0125,-1468
1.4,0.08625,-1464
1.4,0.10375,-1392
1.4,0.0775,-1496
1.4,0.04,-1432
1.4,0.03875,-1420
1.4,0.23375,-1364
1.4,0.0225,-1388
1.4,0.15,-1372
1.4,0.0775,-1400
1.4,0.0025,-1360
1.4,0.05375,-1620
1.4,0.00125,-1452
1.4,0.09875,-1564
1.4,0.13375,-1428
1.4,0.0025,-1460
1.4,0.10375,-1448
1.4,0.025,-1400
1.4,0,-1540
1.4,0.01,-1564
1.4,0.0475,-1432
1.4,0.0975,-1388
1.4,0.09,-1508
1.4,0.10625,-1676
1.4,0.2325,-1432
1.4,0.3225,-1480
1.4,0.22,-1412
1.4,0.065,-1420
1.4,0.03375,-1460
1.4,0.04125,-1388
1.4,0.1525,-1532
1.4,0.20875,-1368
1.4,0.0375,-1624
1.4,0.145,-1480
1.4,0.18,-1480
1.4,0.10375,-1384
1.4,0.03125,-1564
1.4,0.00375,-1356
1.4,0.065,-1536
1.4,0.21625,-1404
1.4,0.10125,-1460
1.4,0.0825,-1472
1.4,0.07,-1496
1.4,0.1225,-1572
1.4,0.1425,-1476
1.4,0.025,-1428
1.4,0.0125,-1340
1.4,0.00375,-1488
1.4,0.07875,-1444
1.4,0.02375,-1512
1.4,0.20125,-1396
1.4,0.03625,-1468
1.4,0.04125,-1392
1.4,0.07375,-1516
1.4,0.05625,-1360
1.4,0.0075,-1528
1.4,0.1025,-1544
1.4,0.2325,-1516
1.4,0.00875,-1408
1.4,0.14125,-1348
1.4,0.035,-1444
1.4,0.1,-1508
1.4,0.08125,-1556
1.4,0.09625,-1496
1.4,0.11625,-1424
1.4,0.0225,-1596
1.4,0.14625,-1408
1.4,0.0525,-1500
1.4,0.00375,-1440
1.4,0.04125,-1424
1.4,0.01625,-1460
1.4,0.1625,-1664
1.4,0.0525,-1432
1.4,0.07,-1372
1.4,0.15,-1440
1.4,0.025,-1488
1.4,0.0875,-1392
1.4,0.09625,-1476
1.4,0.0675,-1284
1.4,0.0775,-1404
1.4,0.06375,-1404
1.4,0.06875,-1368
1.4,0.1425,-1408
1.4,0.07625,-1376
1.4,0.08125,-1372
1.4,0.135,-1476
1.4,0.1425,-1460
1.4,0.185,-1388
1.4,0.00875,-1408
1.4,0.01375,-1444
1.4,0.22375,-1420
1.4,0.18375,-1436
1.4,0.06125,-1476
1.4,0.04,-1556
1.4,0.13125,-1352
1.4,0.0975,-1472
1.4,0.08875,-1440
1.4,0.07625,-1512
1.4,0.1875,-1464
1.4,0.2425,-1416
1.4,0.12875,-1308
1.4,0.25375,-1448
1.4,0.065,-1452
1.4,0.34,-1484
1.4,0.04125,-1552
1.4,0.195,-1396
1.4,0.035,-1388
1.4,0.16625,-1424
1.4,0.115,-1340
1.4,0.015,-1332
1.4,0.06375,-1496
1.4,0.1425,-1432
1.4,0.25375,-1500
1.4,0.085,-1428
1.4,0.07,-1404
1.4,0,-1480
1.4,0.13875,-1420
1.4,0.0225,-1392
1.4,0.0625,-1452
1.4,0.13375,-1512
1.4,0.015,-1528
1.4,0.035,-1476
1.4,0.01625,-1512
1.4,0.10375,-1480
1.4,0.0425,-1312
1.4,0.08,-1472
1.4,0.2425,-1480
1.4,0.1275,-1492
1.4,0.00625,-1592
1.4,0.08,-1488
1.4,0.06875,-1432
1.4,0.07125,-1376
1.4,0.115,-1468
1.4,0.065,-1312
1.4,0.0725,-1416
1.4,0.01375,-1380
1.4,0.055,-1368
1.4,0.04875,-1440
1.4,0.10875,-1440
1.4,0.11125,-1456
1.4,0.135,-1380
1.4,0.00125,-1416
1.4,0.07,-1472
1.4,0.06,-1480
1.4,0.145,-1512
1.4,0.095,-1484
1.4,0.025,-1352
1.4,0.00875,-1532
1.4,0.16,-1484
1.4,0.02875,-1524
1.4,0.13125,-1488
1.4,0.07375,-1484
1.4,0.24625,-1524
1.4,0.0025,-1436
1.4,0.05375,-1460
1.4,0.02875,-1548
1.4,0.04375,-1448
1.4,0.0525,-1336
1.4,0.01375,-1368
1.4,0.1575,-1516
1.4,0.015,-1496
1.4,0.0125,-1504
1.4,0.01375,-1472
1.4,0.06375,-1468
1.4,0.06,-1420
1.4,0.015,-1636
1.4,0.105,-1288
1.4,0.12125,-1600
1.4,0.1775,-1596
1.4,0.05875,-1408
1.4,0.025,-1384
1.4,0.065,-1544
1.4,0.19875,-1556
1.4,0.00625,-1296
1.4,0.05375,-1532
1.4,0.05,-1356
1.4,0.0275,-1420
1.4,0.0425,-1392
1.4,0.08125,-1652
1.4,0.01375,-1376
1.4,0.1475,-1504
1.4,0.05,-1308
1.4,0.01125,-1412
1.4,0.0025,-1360
1.4,0.00375,-1580
1.4,0.0625,-1512
1.4,0.0225,-1488
1.4,0.02625,-1356
1.4,0.01125,-1472
1.4,0.0875,-1400
1.4,0.25375,-1592
1.4,0.01625,-1444
1.4,0.03375,-1448
1.4,0.0925,-1560
1.4,0.18375,-1564
1.4,0.0625,-1356
1.4,0.08375,-1396
1.4,0.06875,-1392
1.4,0.0725,-1512
1.4,0.00625,-1472
1.4,0.145,-1480
1.4,0.1025,-1508
1.4,0.04875,-1560
1.4,0.16875,-1464
1.4,0.015,-1504
1.4,0.18375,-1456
1.4,0.02125,-1444
1.4,0.0325,-1488
1.4,0.11625,-1492
1.4,0.175,-1460
1.4,0.145,-1400
1.4,0.06875,-1456
1.4,0.00875,-1508
1.4,0.135,-1512
1.4,0.08625,-1528
1.4,0.1175,-1588
1.4,0.0175,-1548
1.4,0.21375,-1548
1.4,0.09,-1352
1.4,0.1325,-1604
1.4,0.00625,-1336
1.4,0.015,-1372
1.4,0.13125,-1508
1.4,0.0175,-1340
1.4,0.01875,-1456
1.4,0.125,-1328
1.4,0.1875,-1416
1.4,0.1425,-1340
1.4,0.02,-1600
1.4,0.1475,-1496
1.4,0.22,-1368
1.4,0.19375,-1496
1.4,0.02625,-1524
1.4,0.0225,-1484
1.4,0.095,-1384
1.4,0.09875,-1416
1.4,0.00125,-1428
1.4,0.1325,-1408
1.4,0.005,-1400
1.4,0.04375,-1620
1.4,0.10375,-1468
1.4,0.0775,-1540
1.4,0.1475,-1428
1.4,0.0025,-1292
1.4,0.1825,-1284
1.4,0.1125,-1368
1.4,0.08375,-1372
1.4,0.02375,-1432
1.4,0.0225,-1512
1.4,0.0625,-1436
1.4,0.04,-1488
1.4,0.05,-1508
1.4,0.005,-1496
1.4,0.095,-1488
1.4,0.09625,-1460
1.4,0.12,-1428
1.4,0.08,-1516
1.4,0.0825,-1344
1.4,0.11,-1464
1.4,0.0375,-1364
1.4,0.1075,-1520
1.4,0.10625,-1512
1.4,0.14125,-1444
1.4,0.08125,-1380
1.4,0.15375,-1380
1.4,0.025,-1424
1.4,0.095,-1416
1.4,0.145,-1476
1.4,0.10375,-1408
1.4,0.0925,-1380
1.4,0.1175,-1540
1.4,0.19,-1464
1.4,0.1925,-1404
1.4,0.0725,-1520
1.4,0.01875,-1392
1.4,0.07,-1612
1.4,0.04875,-1512
1.4,0.08,-1280
1.4,0.01,-1400
1.4,0.025,-1400
1.4,0.0125,-1428
1.4,0.15125,-1536
1.4,0.0275,-1476
1.4,0.08,-1400
1.4,0.03375,-1444
1.4,0.06125,-1408
1.4,0.0575,-1568
1.4,0.01125,-1524
1.4,0.14875,-1320
1.4,0.20625,-1532
1.4,0.05875,-1384
1.4,0.1025,-1384
1.4,0.195,-1568
1.4,0.07375,-1544
1.4,0.14375,-1388
1.4,0.02875,-1452
1.4,0.04,-1440
1.4,0.14,-1364
1.4,0.215,-1440
1.4,0.06,-1504
1.4,0.01625,-1340
1.4,0.14125,-1520
1.4,0.085,-1380
1.4,0.17,-1364
1.4,0.2075,-1476
1.4,0.1125,-1416
1.4,0.1075,-1532
1.4,0.09625,-1688
1.4,0.09875,-1720
1.4,0.25875,-1404
1.4,0.005,-1504
1.4,0.0325,-1528
1.4,0.04875,-1516
1.4,0.04625,-1376
1.4,0.1375,-1532
1.4,0.18125,-1448
1.4,0.04625,-1324
1.4,0.01625,-1444
1.4,0.10375,-1560
1.4,0.02,-1328
1.4,0.14375,-1352
1.4,0.1425,-1504
1.4,0.05375,-1536
1.4,0.03,-1488
1.4,0.0275,-1560
1.4,0.12,-1528
1.4,0.0625,-1484
1.4,0.1125,-1440
1.4,0.04125,-1264
1.4,0.0875,-1488
1.4,0.05875,-1392
1.4,0.13875,-1408
1.4,0.085,-1460
1.4,0.03625,-1444
1.4,0.15,-1552
1.4,0.065,-1508
1.4,0.105,-1364
1.4,0.0475,-1436
1.4,0.01375,-1296
1.4,0.05,-1396
1.4,0.01,-1584
1.4,0.07875,-1448
1.4,0.11875,-1604
1.4,0.06625,-1400
1.4,0.1225,-1372
1.4,0.16375,-1420
1.4,0.05625,-1524
1.4,0.02125,-1524
1.4,0.0225,-1356
1.4,0.01,-1508
1.4,0.01,-1428
1.4,0.1,-1456
1.4,0.06625,-1488
1.4,0.01,-1528
1.4,0.0725,-1392
1.4,0.1675,-1520
1.4,0.1075,-1436
1.4,0.13125,-1548
1.4,0.12625,-1560
1.4,0.11,-1456
1.4,0.09875,-1440
1.4,0.12375,-1520
1.4,0.075,-1548
1.4,0.0775,-1468
1.4,0.06,-1384
1.4,0.04875,-1480
1.4,0.08125,-1476
1.4,0.00875,-1292
1.4,0.085,-1392
1.4,0.0075,-1488
1.4,0.17,-1488
1.4,0.05625,-1436
1.4,0.11875,-1444
1.4,0.305,-1492
1.4,0.095,-1488
1.4,0.13375,-1564
1.4,0.09625,-1512
1.4,0.03,-1296
1.4,0.1725,-1416
1.4,0.15625,-1340
1.4,0.03375,-1540
1.4,0.145,-1456
1.4,0,-1400
1.4,0.08375,-1424
1.4,0.11625,-1404
1.4,0.0875,-1276
1.4,0.18375,-1392
1.4,0.09125,-1412
1.4,0.30625,-1528
1.4,0.04,-1352
1.4,0.12875,-1616
1.4,0.1275,-1604
1.4,0.00125,-1304
1.4,0.085,-1564
1.4,0.0375,-1452
1.4,0.06375,-1484
1.4,0.15375,-1360
1.4,0.07625,-1476
1.4,0.15,-1420
1.4,0.22875,-1628
1.4,0.10625,-1404
1.4,0.0875,-1336
1.4,0.09375,-1324
1.4,0.05,-1332
1.4,0.08875,-1584
1.4,0.1175,-1532
1.4,0.14375,-1472
1.4,0.13,-1352
1.4,0.09375,-1420
1.4,0.065,-1440
1.4,0.1,-1368
1.4,0.03625,-1468
1.4,0.01625,-1448
1.4,0.1425,-1556
1.4,0.0325,-1452
1.4,0.065,-1480
1.4,0.0975,-1536
1.4,0.00375,-1444
1.4,0.16875,-1508
1.4,0.08625,-1456
1.4,0.1225,-1560
1.4,0.08375,-1536
1.4,0.0475,-1492
1.4,0.09125,-1460
1.4,0.07375,-1616
1.4,0.0875,-1432
1.4,0.0825,-1468
1.4,0.0175,-1416
1.4,0.03875,-1476
1.4,0.06375,-1444
1.4,0.17375,-1588
1.4,0.1275,-1400
1.4,0.1125,-1460
1.4,0.03125,-1456
1.4,0.16125,-1400
1.4,0.185,-1512
1.4,0.1025,-1544
1.4,0.10375,-1568
1.4,0.04125,-1424
1.4,0.0475,-1576
1.4,0.13,-1380
1.4,0.08125,-1472
1.4,0.11,-1512
1.4,0.22625,-1436
1.4,0.2775,-1560
1.4,0.06625,-1412
1.4,0.1,-1476
1.4,0.09875,-1452
1.4,0.19375,-1492
1.4,0.05,-1388
1.4,0.1625,-1560
1.4,0.28375,-1452
1.4,0.1475,-1460
1.4,0.12,-1364
1.4,0.125,-1544
1.4,0.00875,-1424
1.4,0.03625,-1412
1.4,0.02875,-1384
1.4,0.08125,-1456
1.4,0.01,-1544
1.4,0.065,-1452
1.4,0.22,-1464
1.4,0.055,-1456
1.4,0.1075,-1524
1.4,0.13,-1348
1.4,0.04875,-1460
1.4,0.14,-1360
1.4,0.0275,-1456
1.4,0.1425,-1428
1.4,0.14875,-1644
1.4,0.10375,-1480
1.4,0.00625,-1504
1.4,0.035,-1492
1.4,0.0275,-1476
1.4,0.1025,-1460
1.4,0.05125,-1472
1.4,0.04625,-1292
1.4,0.08,-1556
1.4,0,-1628
1.4,0.00125,-1312
1.4,0.08,-1616
1.4,0.04625,-1476
1.4,0.02125,-1440
1.4,0.0925,-1388
1.4,0.095,-1460
1.4,0.095,-1444
1.4,0.05125,-1460
1.4,0.0225,-1404
1.4,0.12375,-1536
1.4,0.01125,-1296
1.4,0.26375,-1564
1.4,0.1175,-1640
1.4,0.03875,-1412
1.4,0.05375,-1272
1.4,0.10125,-1408
1.4,0.015,-1388
1.4,0.08625,-1412
1.4,0.04,-1392
1.4,0.2675,-1496
1.4,0.18375,-1352
1.4,0.0275,-1356
1.4,0.20875,-1448
1.4,0.13625,-1432
1.4,0.1,-1500
1.4,0.15125,-1472
1.4,0.12625,-1428
1.4,0.06875,-1440
1.4,0.05625,-1468
1.4,0.1225,-1416
1.4,0.10375,-1304
1.4,0.045,-1432
1.4,0.1925,-1468
1.4,0.025,-1448
1.4,0.03125,-1420
1.4,0.0175,-1516
1.4,0.02,-1620
1.4,0.08375,-1388
1.4,0.24875,-1440
1.4,0.0575,-1436
1.4,0.17625,-1396
1.4,0.22,-1440
1.4,0.0625,-1444
1.4,0.17875,-1492
1.4,0.07375,-1456
1.4,0.11625,-1444
1.4,0.02,-1380
1.4,0.1075,-1540
1.4,0.06125,-1412
1.4,0.0625,-1556
1.4,0.0875,-1312
1.4,0.0325,-1440
1.4,0.04125,-1432
1.4,0.025,-1544
1.4,0.0375,-1492
1.4,0.05375,-1432
1.4,0.17375,-1356
1.4,0.06375,-1440
1.4,0.0625,-1580
1.4,0.21625,-1564
1.4,0.07125,-1544
1.4,0.08,-1432
1.4,0.01875,-1336
1.4,0.13,-1452
1.4,0.11,-1512
1.4,0.015,-1412
1.4,0.07625,-1416
1.4,0.12125,-1500
1.4,0.03125,-1324
1.4,0.115,-1456
1.4,0.10375,-1596
1.4,0.0375,-1580
1.4,0.0825,-1296
1.4,0.14625,-1460
1.4,0.09375,-1380
1.4,0.1725,-1464
1.4,0.0475,-1524
1.4,0.06125,-1444
1.4,0.19625,-1540
1.4,0.04875,-1484
1.4,0.02125,-1372
1.4,0.2775,-1508
1.4,0.0175,-1496
1.4,0.0175,-1428
1.4,0.01875,-1428
1.4,0.10625,-1592
1.4,0.135,-1436
1.4,0.035,-1612
1.4,0.0625,-1400
1.4,0.04,-1516
1.4,0.01,-1504
1.4,0.02375,-1428
1.4,0.0575,-1488
1.4,0.05875,-1436
1.4,0.055,-1416
1.4,0.2025,-1572
1.4,0.01875,-1300
1.4,0.0825,-1524
1.4,0.0725,-1312
1.4,0.1875,-1568
1.4,0.0625,-1392
1.4,0.00375,-1472
1.4,0.0775,-1524
1.4,0.01,-1312
1.4,0.0375,-1348
1.4,0.0625,-1540
1.4,0.10875,-1584
1.4,0.01125,-1432
1.4,0.17375,-1364
1.4,0.12875,-1368
1.4,0.08875,-1532
1.4,0.1,-1400
1.4,0.1675,-1336
1.4,0.13,-1616
1.4,0.02625,-1336
1.4,0.10625,-1492
1.4,0.08375,-1396
1.4,0.1,-1408
1.4,0.215,-1556
1.4,0.15125,-1588
1.4,0.13,-1372
1.4,0.04,-1384
1.4,0.075,-1412
1.4,0.0625,-1432
1.4,0.01625,-1368
1.4,0.05,-1404
1.4,0.21375,-1500
1.4,0.0275,-1556
1.4,0.15875,-1356
1.4,0.18375,-1464
1.4,0.035,-1460
1.4,0.08375,-1340
1.4,0.17,-1480
1.4,0.0125,-1396
1.4,0.11875,-1476
1.4,0.145,-1588
1.4,0.005,-1404
1.4,0.18375,-1588
1.4,0.03875,-1356
1.4,0.1975,-1608
1.4,0.04625,-1588
1.4,0.1575,-1584
1.4,0.035,-1464
1.4,0.01,-1508
1.4,0.05,-1444
1.4,0.0875,-1500
1.4,0.08625,-1564
1.4,0.07625,-1500
1.4,0.005,-1512
1.4,0.00875,-1340
1.4,0.02375,-1516
1.4,0.1525,-1440
1.4,0.0325,-1532
1.4,0.02625,-1464
1.4,0.03375,-1384
1.4,0.21375,-1392
1.4,0.07375,-1448
1.4,0.03,-1312
1.4,0.065,-1652
1.4,0.14125,-1488
1.4,0.06625,-1356
1.4,0.03875,-1420
1.4,0.03,-1452
1.4,0.27875,-1488
1.4,0.0075,-1536
1.4,0.095,-1400
1.4,0.03875,-1400
1.4,0.115,-1412
1.4,0.09375,-1400
1.4,0.0225,-1468
1.4,0.0375,-1464
1.4,0.14375,-1528
1.4,0.03875,-1348
1.4,0.2025,-1492
1.4,0.025,-1300
1.4,0.105,-1476
1.4,0.025,-1432
1.4,0.0025,-1724
1.4,0.18625,-1504
1.4,0.06,-1568
1.4,0.0375,-1348
1.4,0.1,-1620
1.4,0.1725,-1540
1.4,0.08,-1476
1.4,0.13125,-1564
1.4,0.105,-1408
1.4,0.0325,-1488
1.4,0.0425,-1480
1.4,0.01125,-1596
1.4,0.06375,-1416
1.4,0.06625,-1444
1.4,0.1075,-1532
1.4,0.13875,-1396
1.4,0.1125,-1628
1.4,0.13125,-1516
1.4,0.11,-1464
1.4,0.05875,-1352
1.4,0.05125,-1452
1.4,0.03375,-1500
1.4,0.105,-1508
1.4,0.0275,-1432
1.4,0.02,-1496
1.4,0.25,-1508
1.4,0.0275,-1524
1.4,0.02125,-1432
1.4,0.06,-1616
1.4,0.03375,-1408
1.4,0.14375,-1420
1.4,0.02625,-1416
1.4,0.17875,-1468
1.4,0.01375,-1572
1.4,0.0575,-1440
1.4,0.0175,-1364
1.4,0.13375,-1496
1.4,0.02875,-1544
1.4,0.09125,-1564
1.4,0.065,-1552
1.4,0.03125,-1648
1.4,0.06,-1360
1.4,0.09,-1428
1.4,0.35125,-1584
1.4,0.045,-1540
1.4,0.06125,-1244
1.4,0.12875,-1564
1.4,0.075,-1384
1.4,0.2425,-1368
1.4,0.06375,-1468
1.4,0.0325,-1316
1.4,0.06125,-1544
1.4,0.04625,-1468
1.4,0.04875,-1420
1.4,0.05125,-1316
1.4,0.015,-1440
1.4,0.13125,-1588
1.4,0.06375,-1368
1.4,0.24,-1692
1.4,0.05625,-1336
1.4,0.20125,-1576
1.4,0.13375,-1484
1.4,0.055,-1392
1.4,0.02875,-1460
1.4,0.11375,-1420
1.4,0.085,-1332
1.4,0.11,-1464
1.4,0.2225,-1588
1.4,0.005,-1368
1.4,0.00375,-1312
1.4,0.15125,-1392
1.4,0.09,-1436
1.4,0.01875,-1496
1.4,0.08875,-1420
1.4,0.02625,-1352
1.4,0.045,-1436
1.4,0.055,-1392
1.4,0.1275,-1428
1.4,0.06375,-1472
1.4,0.04125,-1428
1.4,0.1875,-1476
1.4,0.12,-1544
1.4,0.04375,-1200
1.4,0.06,-1212
1.4,0.15125,-1448
1.4,0.035,-1612
1.4,0.0825,-1448
1.4,0.08625,-1428
1.4,0.0175,-1464
1.4,0.16,-1328
1.4,0.01,-1452
1.4,0.0125,-1424
1.4,0.19,-1576
1.4,0.0125,-1456
1.4,0.04,-1328
1.4,0.01625,-1500
1.4,0.02625,-1308
1.4,0.06875,-1452
1.4,0.03125,-1328
1.4,0.05,-1360
1.4,0.0725,-1436
1.4,0.01125,-1372
1.4,0.0325,-1488
1.4,0.055,-1300
1.4,0.10125,-1488
1.4,0.17625,-1252
1.4,0.095,-1476
1.4,0.12125,-1492
1.4,0.12875,-1332
1.4,0.12375,-1444
1.4,0.09625,-1460
1.4,0.13125,-1412
1.4,0.1375,-1396
1.4,0.025,-1492
1.4,0.155,-1388
1.4,0.16375,-1512
1.4,0.1125,-1508
1.4,0.10125,-1504
1.4,0.12875,-1500
1.4,0.15125,-1524
1.4,0.0225,-1492
1.4,0.02,-1528
1.4,0.035,-1244
1.4,0.0625,-1356
1.4,0.17875,-1412
1.4,0.23125,-1468
1.4,0.095,-1660
1.4,0.09625,-1456
1.4,0.08125,-1436
1.4,0.10375,-1400
1.4,0.08,-1368
1.4,0.01375,-1396
1.4,0.15125,-1488
1.4,0.065,-1492
1.4,0.04125,-1560
1.4,0.08,-1608
1.4,0.22875,-1444
1.4,0.1075,-1536
1.4,0.1375,-1516
1.4,0.15,-1504
1.4,0.015,-1572
1.4,0.0725,-1384
1.4,0.15875,-1452
1.4,0.06625,-1364
1.4,0.175,-1440
1.4,0.14,-1476
1.4,0.155,-1488
1.4,0.05625,-1512
1.4,0.13625,-1524
1.4,0.04,-1428
1.4,0.07875,-1624
1.4,0.0025,-1512
1.4,0.04875,-1384
1.4,0.1075,-1328
1.4,0.065,-1356
1.4,0.15,-1324
1.4,0.015,-1504
1.4,0.00875,-1576
1.4,0.21625,-1552
1.4,0.1075,-1456
1.4,0.06125,-1356
1.4,0.07875,-1376
1.4,0.0075,-1404
1.4,0.11,-1632
1.4,0.08875,-1384
1.4,0.1875,-1544
1.4,0.1125,-1344
1.4,0.1175,-1464
1.4,0.00375,-1568
1.4,0.03,-1400
1.4,0.09,-1376
1.4,0.2425,-1432
1.4,0.16875,-1572
1.4,0.0375,-1360
1.4,0.1325,-1480
1.4,0.00375,-1308
1.4,0.01,-1372
1.4,0.25,-1544
1.4,0.2675,-1600
1.4,0,-1364
1.4,0.0675,-1352
1.4,0.0325,-1504
1.4,0.1275,-1468
1.4,0.1025,-1372
1.4,0.0175,-1456
1.4,0.0075,-1360
1.4,0.0625,-1556
1.4,0.125,-1396
1.4,0.02875,-1320
1.4,0.03,-1424
1.4,0.17625,-1404
1.4,0.18125,-1380
1.4,0.0125,-1424
1.4,0.105,-1436
1.4,0.04125,-1504
1.4,0.17,-1464
1.4,0.1525,-1540
1.4,0.20375,-1420
1.4,0.015,-1500
1.4,0.02125,-1456
1.4,0.08625,-1484
1.4,0.02,-1432
1.4,0.025,-1412
1.4,0.00875,-1288
1.4,0.04875,-1372
1.4,0.18375,-1444
1.4,0.01125,-1424
1.4,0.13,-1504
1.4,0.16125,-1320
1.4,0.19125,-1496
1.4,0.16,-1492
1.4,0.06375,-1388
1.4,0.0275,-1496
1.4,0.025,-1400
1.4,0.24125,-1452
1.4,0.1275,-1572
1.4,0.005,-1324
1.4,0.05125,-1372
1.4,0.0375,-1416
1.4,0.10625,-1556
1.4,0.0225,-1480
1.4,0.16875,-1376
1.4,0.05625,-1552
1.4,0.04,-1468
1.4,0.12125,-1340
1.4,0.01625,-1384
1.4,0.0175,-1516
1.4,0.18,-1404
1.4,0.01375,-1588
1.4,0.04375,-1424
1.4,0.04375,-1408
1.4,0.105,-1320
1.4,0.03125,-1464
1.4,0.12375,-1564
1.4,0.09625,-1420
1.4,0.205,-1544
1.4,0.0525,-1448
1.4,0.02375,-1456
1.4,0.0925,-1428
1.4,0.02375,-1496
1.4,0.2425,-1512
1.4,0.175,-1392
1.4,0.05875,-1412
1.4,0.0975,-1496
1.4,0.16125,-1320
1.4,0.1125,-1548
1.4,0.00375,-1392
1.4,0.06125,-1436
1.4,0.16625,-1732
1.4,0.08125,-1420
1.4,0.07,-1392
1.4,0.14,-1416
1.4,0.005,-1520
1.4,0.025,-1408
1.4,0.30875,-1420
1.4,0.06125,-1460
1.4,0.05625,-1472
1.4,0.0375,-1396
1.4,0.1675,-1420
1.4,0.0925,-1444
1.4,0.05375,-1472
1.4,0.0675,-1612
1.4,0.045,-1300
1.4,0.09875,-1448
1.4,0.06,-1484
1.4,0.03125,-1312
1.4,0.0825,-1448
1.4,0.0525,-1496
1.4,0.02125,-1436
1.4,0.07125,-1492
1.4,0.05,-1448
1.4,0.0425,-1364
1.4,0.1275,-1592
1.4,0.04125,-1364
1.4,0.0775,-1432
1.4,0.175,-1388
1.4,0.1,-1444
1.4,0.04625,-1524
1.4,0.03375,-1496
1.4,0.11,-1412
1.4,0.03875,-1336
1.4,0.14375,-1404
1.4,0.02125,-1460
1.4,0.0025,-1516
1.4,0.12125,-1296
1.4,0.0575,-1444
1.4,0.06,-1368
1.4,0.0625,-1356
1.4,0.02125,-1504
1.4,0.16625,-1488
1.4,0.105,-1444
1.4,0.17375,-1476
1.4,0.205,-1532
1.4,0.0025,-1468
1.4,0.14625,-1472
1.4,0.0975,-1496
1.4,0.2025,-1480
1.4,0.14625,-1460
1.4,0.04125,-1524
1.4,0.015,-1500
1.4,0.045,-1488
1.4,0.15,-1516
1.4,0.03375,-1364
1.4,0.1725,-1548
1.4,0.18625,-1356
1.4,0.08875,-1460
1.4,0.10125,-1416
1.4,0.0275,-1516
1.4,0.2,-1388
1.4,0.05375,-1556
1.4,0.06,-1480
1.4,0.005,-1540
1.4,0.01875,-1376
1.4,0.19125,-1548
1.4,0.01875,-1600
1.4,0.0075,-1468
1.4,0.07,-1524
1.4,0.20375,-1420
1.4,0.09875,-1300
1.4,0.06,-1612
1.4,0.00375,-1496
1.4,0.155,-1460
1.4,0.15875,-1420
1.4,0.0925,-1404
1.4,0.04875,-1308
1.4,0.11125,-1588
1.4,0.00875,-1360
1.4,0.01,-1464
1.4,0.12125,-1408
1.4,0.0925,-1584
1.4,0.015,-1476
1.4,0.18125,-1516
1.4,0.09125,-1400
1.4,0.13625,-1376
1.4,0.13125,-1264
1.4,0.02375,-1448
1.4,0.045,-1304
1.4,0.04375,-1452
1.4,0.065,-1512
1.4,0.00875,-1440
1.4,0.06875,-1464
1.4,0.0175,-1444
1.4,0.04375,-1388
1.4,0.0225,-1428
1.4,0.01125,-1316
1.4,0.00125,-1424
1.4,0.235,-1604
1.4,0.03375,-1440
1.4,0.17375,-1548
1.4,0.01375,-1312
1.4,0.1425,-1532
1.4,0.0825,-1364
1.4,0.08375,-1492
1.4,0.1675,-1500
1.4,0.04875,-1464
1.4,0.07625,-1372
1.4,0.1675,-1564
1.4,0.1925,-1484
1.4,0.06375,-1548
1.4,0.06625,-1448
1.4,0.0325,-1452
1.4,0.16125,-1584
1.4,0.04125,-1380
1.4,0.0475,-1456
1.4,0.0475,-1396
1.4,0.235,-1476
1.4,0.15625,-1592
1.4,0.07375,-1344
1.4,0.0525,-1344
1.4,0.025,-1504
1.4,0.07625,-1484
1.4,0.0475,-1444
1.4,0.0175,-1408
1.4,0.2675,-1544
1.4,0.13875,-1508
1.4,0.05,-1468
1.4,0.09625,-1524
1.4,0.13,-1272
1.4,0.145,-1404
1.4,0.09125,-1364
1.4,0.15375,-1356
1.4,0.14625,-1364
1.4,0.21,-1436
1.4,0.09,-1460
1.4,0.07125,-1352
1.4,0.0175,-1436
1.4,0.12875,-1532
1.4,0.085,-1420
1.4,0.1225,-1392
1.4,0.02875,-1416
1.4,0.25625,-1412
1.4,0.08625,-1420
1.4,0.2525,-1384
1.4,0.2075,-1544
1.4,0.06875,-1468
1.4,0.0325,-1476
1.4,0.02,-1576
1.4,0.03,-1364
1.4,0.0625,-1400
1.4,0.10625,-1512
1.4,0.08875,-1432
1.4,0.16125,-1568
1.4,0.16625,-1484
1.4,0.0175,-1444
1.4,0.0575,-1496
1.4,0.17375,-1564
1.4,0.03125,-1452
1.4,0.09375,-1400
1.4,0.165,-1328
1.4,0.04125,-1468
1.4,0.0825,-1612
1.4,0.06625,-1476
1.4,0.035,-1324
1.4,0.1575,-1400
1.4,0.055,-1448
1.4,0.0625,-1380
1.4,0.05,-1368
1.4,0.1275,-1488
1.4,0.08375,-1408
1.4,0.0975,-1508
1.4,0.0675,-1504
1.4,0.15,-1340
1.4,0.015,-1392
1.4,0.02,-1376
1.4,0.05625,-1628
1.4,0.14375,-1484
1.4,0.005,-1436
1.4,0.25875,-1656
1.4,0.085,-1540
1.4,0.1675,-1456
1.4,0.01375,-1496
1.4,0.09375,-1516
1.4,0.055,-1576
1.4,0.055,-1352
1.4,0.12125,-1324
1.4,0.2075,-1488
1.4,0.015,-1488
1.4,0.115,-1508
1.4,0.12875,-1556
1.4,0.13125,-1556
1.4,0.20375,-1392
1.4,0.0925,-1484
1.4,0.075,-1444
1.4,0.145,-1404
1.4,0.1975,-1536
1.4,0.04625,-1548
1.4,0.11875,-1424
1.4,0.06125,-1500
1.4,0.0225,-1424
1.4,0.03,-1536
1.4,0.08125,-1488
1.4,0.03,-1408
1.4,0.24875,-1564
1.4,0.05,-1304
1.4,0.0125,-1436
1.4,0.0275,-1488
1.4,0.015,-1512
1.4,0.02625,-1496
1.4,0.125,-1368
1.4,0.0175,-1408
1.4,0.01875,-1480
1.4,0.01625,-1408
1.4,0.13625,-1440
1.4,0.04375,-1312
1.4,0.0825,-1424
1.4,0.03125,-1500
1.4,0.06375,-1340
1.4,0.07375,-1396
1.4,0.06125,-1396
1.4,0.0425,-1488
1.4,0.135,-1428
1.4,0.0025,-1440
1.4,0.1175,-1312
1.4,0.17625,-1604
1.4,0.02,-1484
1.4,0.0275,-1448
1.4,0.0225,-1464
1.4,0.2975,-1572
1.4,0.02375,-1284
1.4,0.06875,-1416
1.4,0.1325,-1448
1.4,0.1375,-1460
1.4,0.1125,-1628
1.4,0.04125,-1424
1.4,0.02,-1488
1.4,0.0825,-1356
1.4,0.21375,-1620
1.4,0.02625,-1432
1.4,0.01,-1388
1.4,0.025,-1528
1.4,0.05,-1368
1.4,0.06125,-1508
1.4,0.10375,-1512
1.4,0.0425,-1412
1.4,0.0075,-1496
1.4,0.14,-1592
1.4,0.05375,-1404
1.4,0.065,-1348
1.4,0.0525,-1376
1.4,0.03125,-1480
1.4,0.12125,-1464
1.4,0.005,-1320
1.4,0.0375,-1440
1.4,0.00375,-1412
1.4,0.12625,-1464
1.4,0.0125,-1484
1.4,0.0075,-1440
1.4,0.035,-1508
1.4,0.03875,-1420
1.4,0.10125,-1388
1.4,0.005,-1376
1.4,0.04625,-1520
1.4,0.115,-1408
1.4,0.125,-1408
1.4,0.16875,-1544
1.4,0.1975,-1388
1.4,0.0625,-1508
1.4,0.0625,-1564
1.4,0.0375,-1436
1.4,0.095,-1392
1.4,0.0525,-1408
1.4,0.17625,-1428
1.4,0.00125,-1548
1.4,0.0925,-1336
1.4,0.05875,-1364
1.4,0.0375,-1364
1.4,0.02125,-1372
1.4,0.03125,-1500
1.4,0.055,-1420
1.4,0.07,-1356
1.4,0.2075,-1508
1.4,0.0675,-1576
1.4,0.02625,-1376
1.4,0.08,-1504
1.4,0.10375,-1408
1.4,0.08,-1664
1.4,0.02,-1548
1.4,0.185,-1396
1.4,0.05375,-1440
1.4,0.055,-1500
1.4,0.13125,-1428
1.4,0.00625,-1580
1.4,0.06625,-1448
1.4,0.0675,-1568
1.4,0.23625,-1528
1.4,0.2,-1464
1.4,0.09125,-1304
1.4,0.10875,-1560
1.4,0.1275,-1360
1.4,0.11125,-1372
1.4,0.10625,-1436
1.4,0.0175,-1344
1.4,0.0825,-1452
1.4,0.18875,-1484
1.4,0.15875,-1516
1.4,0.21625,-1524
1.4,0.05125,-1416
1.4,0.13875,-1484
1.4,0.03625,-1228
1.4,0.0575,-1400
1.4,0.07375,-1340
1.4,0.02125,-1392
1.4,0.00875,-1408
1.4,0.0625,-1432
1.4,0.0925,-1432
1.4,0.0925,-1536
1.4,0.105,-1408
1.4,0.05,-1500
1.4,0.10125,-1396
1.4,0.075,-1428
1.4,0.0425,-1460
1.4,0.20625,-1440
1.4,0.02875,-1448
1.4,0.1525,-1588
1.4,0.00125,-1420
1.4,0.0925,-1492
1.4,0.07,-1588
1.4,0.03625,-1484
1.4,0.17375,-1376
1.4,0.18375,-1464
1.4,0.0075,-1412
1.4,0.08125,-1524
1.4,0.045,-1456
1.4,0.10625,-1436
1.4,0.0525,-1544
1.4,0.00375,-1268
1.4,0.025,-1564
1.4,0,-1372
1.4,0.08625,-1512
1.4,0.05375,-1476
1.4,0.0425,-1444
1.4,0.085,-1376
1.4,0.03375,-1340
1.4,0.0025,-1304
1.4,0.00625,-1328
1.4,0.3375,-1456
1.4,0.08375,-1356
1.4,0.08625,-1332
1.4,0.09375,-1516
1.4,0.05875,-1564
1.4,0.17375,-1396
1.4,0.0625,-1528
1.4,0.1675,-1420
1.4,0.19625,-1476
1.4,0.065,-1536
1.4,0.205,-1572
1.4,0.08875,-1412
1.4,0.07125,-1412
1.4,0.25125,-1436
1.4,0.0525,-1432
1.4,0.01625,-1408
1.4,0.0375,-1424
1.4,0.095,-1532
1.4,0.02,-1480
1.4,0.06875,-1392
1.4,0.135,-1424
1.4,0.0275,-1444
1.4,0.0325,-1552
1.4,0.19,-1560
1.4,0.0975,-1392
1.4,0.135,-1412
1.4,0.065,-1504
1.4,0.065,-1512
1.4,0.1225,-1408
1.4,0.04375,-1496
1.4,0.06,-1432
1.4,0.08125,-1564
1.4,0.05,-1304
1.4,0.13125,-1408
1.4,0.04125,-1496
1.4,0.02875,-1372
1.4,0.22375,-1368
1.4,0.08,-1488
1.4,0.08,-1452
1.4,0.02125,-1448
1.4,0.03125,-1408
1.4,0.07375,-1440
1.4,0.0825,-1452
1.4,0.00875,-1452
1.4,0.005,-1356
1.4,0.07625,-1396
1.4,0.08375,-1424
1.4,0.1625,-1428
1.4,0.055,-1664
1.4,0.01,-1436
1.4,0.16125,-1592
1.4,0.08875,-1264
1.4,0.0375,-1544
1.4,0.155,-1488
1.4,0.01125,-1644
1.4,0.0025,-1348
1.4,0.025,-1444
1.4,0.07125,-1420
1.4,0.0925,-1572
1.4,0.0575,-1540
1.4,0.13375,-1532
1.4,0.15875,-1472
1.4,0.09,-1548
1.4,0.09,-1376
1.4,0.0825,-1496
1.4,0.105,-1396
1.4,0.01375,-1552
1.4,0.01625,-1440
1.4,0.19625,-1344
1.4,0.14125,-1432
1.4,0.135,-1608
1.4,0.04375,-1592
1.4,0.08375,-1444
1.4,0.11125,-1488
1.4,0.04125,-1344
1.4,0.1125,-1428
1.4,0.02,-1472
1.4,0.09375,-1520
1.4,0.1175,-1552
1.4,0.1025,-1432
1.4,0.0575,-1460
1.4,0.1175,-1584
1.4,0.0625,-1424
1.4,0.11375,-1532
1.4,0.0075,-1352
1.4,0.035,-1360
1.4,0.13875,-1592
1.4,0.0775,-1392
1.4,0.05,-1440
1.4,0.1325,-1580
1.4,0.08125,-1444
1.4,0.07875,-1492
1.4,0.06,-1340
1.4,0.0825,-1488
1.4,0.11,-1480
1.4,0.09125,-1328
1.4,0.12125,-1424
1.4,0.175,-1556
1.4,0.04,-1400
1.4,0.04875,-1348
1.4,0.0525,-1332
1.4,0.1975,-1520
1.4,0.02375,-1472
1.4,0.0575,-1524
1.4,0.0675,-1428
1.4,0.085,-1476
1.4,0.03625,-1548
1.4,0.125,-1388
1.4,0.11,-1484
1.4,0.05125,-1596
1.4,0.13625,-1424
1.4,0.0675,-1544
1.4,0.05625,-1492
1.4,0.0225,-1468
1.4,0.06875,-1632
1.4,0.07125,-1364
1.4,0.185,-1448
1.4,0.26125,-1484
1.4,0.05875,-1504
1.4,0.11125,-1396
1.4,0.03375,-1444
1.4,0.0625,-1484
1.4,0.02625,-1412
1.4,0.25,-1528
1.4,0.09375,-1356
1.4,0.11375,-1488
1.4,0.06,-1544
1.4,0.2125,-1492
1.4,0.11875,-1400
1.4,0.0775,-1364
1.4,0.14625,-1712
1.4,0.00625,-1608
1.4,0.02875,-1424
1.4,0.025,-1540
1.4,0.00625,-1556
1.4,0.08125,-1448
1.4,0.02625,-1412
1.4,0.12125,-1372
1.4,0.11875,-1432
1.4,0.1,-1388
1.4,0.26375,-1456
1.4,0.1425,-1488
1.4,0.2075,-1452
1.4,0.0525,-1548
1.4,0.0475,-1436
1.4,0.025,-1508
1.4,0.1825,-1400
1.4,0.12375,-1472
1.4,0.08375,-1412
1.4,0.1525,-1356
1.4,0.05875,-1332
1.4,0.08125,-1496
1.4,0.01875,-1296
1.4,0.09125,-1460
1.4,0.0075,-1456
1.4,0.01625,-1348
1.4,0.1925,-1584
1.4,0.17375,-1388
1.4,0.19,-1428
1.4,0.10875,-1540
1.4,0.0025,-1448
1.4,0.15125,-1336
1.4,0.1275,-1484
1.4,0.05,-1388
1.4,0.18,-1420
1.4,0.08875,-1456
1.4,0.0825,-1400
1.4,0.1275,-1540
1.4,0.10125,-1632
1.4,0.0175,-1464
1.4,0.115,-1576
1.4,0.08875,-1380
1.4,0.15375,-1504
1.4,0.03125,-1540
1.4,0.1325,-1424
1.4,0.04875,-1432
1.4,0.015,-1532
1.4,0.06375,-1432
1.4,0.03,-1428
1.4,0.035,-1360
1.4,0.02125,-1324
1.4,0.0425,-1308
1.4,0.02125,-1476
1.4,0.04875,-1488
1.4,0.035,-1344
1.4,0.00375,-1428
1.4,0.07,-1484
1.4,0.0825,-1280
1.4,0.1,-1488
1.4,0.07375,-1356
1.4,0.0875,-1492
1.4,0.0075,-1460
1.4,0.12875,-1436
1.4,0.025,-1388
1.4,0.005,-1392
1.4,0.105,-1432
1.4,0.15,-1408
1.4,0.28,-1548
1.4,0.10125,-1428
1.4,0.00875,-1432
1.4,0.14875,-1468
1.4,0.07875,-1524
1.4,0.0975,-1368
1.4,0.12,-1360
1.4,0.07375,-1560
1.4,0.20375,-1516
1.4,0.03375,-1228
1.4,0.00125,-1572
1.4,0.14875,-1296
1.4,0.0225,-1572
1.4,0.0875,-1396
1.4,0.0175,-1448
1.4,0.06,-1552
1.4,0.06625,-1372
1.4,0.0875,-1528
1.4,0.035,-1648
1.4,0.21875,-1568
1.4,0.045,-1408
1.4,0.1875,-1468
1.4,0.035,-1528
1.4,0.13,-1448
1.4,0.03,-1408
1.4,0.05625,-1548
1.4,0.08875,-1420
1.4,0.02625,-1472
1.4,0.0025,-1492
1.4,0.03875,-1468
1.4,0.01375,-1420
1.4,0.05875,-1448
1.4,0.0925,-1484
1.4,0.12375,-1508
1.4,0.03,-1520
1.4,0.01125,-1612
1.4,0.02875,-1416
1.4,0.04125,-1540
1.4,0.065,-1456
1.4,0.0975,-1484
1.4,0.0125,-1468
1.4,0.125,-1536
1.4,0.065,-1412
1.4,0.00875,-1412
1.4,0.0475,-1492
1.4,0.04,-1396
1.4,0.0175,-1300
1.4,0.15375,-1520
1.4,0.215,-1480
1.4,0.13875,-1584
1.4,0.16125,-1556
1.4,0.05125,-1408
1.4,0.08,-1504
1.4,0.15125,-1488
1.4,0.07,-1516
1.4,0.09625,-1504
1.4,0.07,-1424
1.4,0.02625,-1408
1.4,0.025,-1480
1.4,0.19125,-1604
1.4,0.015,-1288
1.4,0.20375,-1440
1.4,0.07375,-1304
1.4,0.20625,-1560
1.4,0.08125,-1340
1.4,0.075,-1440
1.4,0.00125,-1572
1.4,0.00875,-1476
1.4,0.22125,-1676
1.4,0.00625,-1428
1.4,0.1375,-1472
1.4,0.06125,-1344
1.4,0.1975,-1580
1.4,0.00375,-1380
1.4,0.11,-1560
1.4,0.14125,-1392
1.4,0.15,-1516
1.4,0,-1612
1.4,0.12625,-1440
1.4,0.04375,-1508
1.4,0.0725,-1508
1.4,0.105,-1488
1.4,0.04875,-1472
1.4,0.14125,-1436
1.4,0.12875,-1376
1.4,0.09,-1480
1.4,0.1175,-1360
1.4,0.0425,-1504
1.4,0.05875,-1444
1.4,0.0325,-1564
1.4,0.05875,-1504
1.4,0.03375,-1408
1.4,0.1775,-1536
1.4,0.07125,-1524
1.4,0.08875,-1332
1.4,0.06,-1504
1.4,0.14125,-1408
1.4,0.0425,-1472
1.4,0.025,-1488
1.4,0.10625,-1344
1.4,0.0725,-1408
1.4,0.03875,-1384
1.4,0.11125,-1456
1.4,0.0975,-1452
1.4,0.09375,-1460
1.4,0.01375,-1440
1.4,0.01625,-1376
1.4,0.005,-1572
1.4,0.255,-1568
1.4,0.1175,-1576
1.4,0.09375,-1608
1.4,0.19875,-1348
1.4,0.0075,-1416
1.4,0.10875,-1520
1.4,0.06,-1492
1.4,0.02625,-1416
1.4,0.12625,-1532
1.4,0.06125,-1272
1.4,0.08375,-1348
1.4,0.04625,-1524
1.4,0.0825,-1384
1.4,0.0525,-1456
1.4,0.14,-1456
1.4,0.01375,-1336
1.4,0.09375,-1392
1.4,0.02625,-1392
1.4,0.05375,-1356
1.4,0.115,-1660
1.4,0.16875,-1532
1.4,0.175,-1324
1.4,0.06375,-1424
1.4,0.00625,-1312
1.4,0.16125,-1524
1.4,0.12625,-1488
1.4,0.13,-1392
1.4,0.005,-1444
1.4,0.01125,-1492
1.4,0.02375,-1396
1.4,0.07625,-1356
1.4,0.115,-1476
1.4,0.0875,-1496
1.4,0.155,-1536
1.4,0.04125,-1552
1.4,0.11125,-1512
1.4,0.125,-1576
1.4,0.0225,-1468
1.4,0.0825,-1488
1.4,0.0775,-1404
1.4,0.0375,-1436
1.4,0.03875,-1396
1.4,0.035,-1488
1.4,0.105,-1456
1.4,0.03,-1432
1.4,0.03875,-1388
1.4,0.2,-1452
1.4,0.03375,-1468
1.4,0.07,-1472
1.4,0.0525,-1472
1.4,0.13875,-1420
1.4,0.01125,-1392
1.4,0.0725,-1444
1.4,0.1225,-1444
1.4,0.00125,-1416
1.4,0.30375,-1508
1.4,0.0625,-1416
1.4,0.12375,-1452
1.4,0.17625,-1476
1.4,0.07625,-1460
1.4,0.04,-1540
1.4,0.155,-1420
1.4,0.005,-1420
1.4,0.03,-1436
1.4,0.12,-1444
1.4,0.07125,-1404
1.4,0.13,-1432
1.4,0.15,-1516
1.4,0.14625,-1572
1.4,0.01,-1452
1.4,0.1225,-1428
1.4,0.02375,-1496
1.4,0.1275,-1424
1.4,0.23625,-1372
1.4,0.02875,-1536
1.4,0.09125,-1356
1.4,0.0025,-1320
1.4,0.06,-1552
1.4,0.01875,-1360
1.4,0.0475,-1412
1.4,0.18125,-1364
1.4,0.03625,-1420
1.4,0.00375,-1344
1.4,0.02,-1444
1.4,0.1325,-1536
1.4,0.07625,-1340
1.4,0.045,-1588
1.4,0.0875,-1504
1.4,0.01,-1316
1.4,0.04,-1484
1.4,0.00375,-1392
1.4,0.06125,-1448
1.4,0.1325,-1508
1.4,0.01875,-1492
1.4,0.15375,-1360
1.4,0.11875,-1360
1.4,0.04875,-1536
1.4,0.0325,-1512
1.4,0.1675,-1432
1.4,0.075,-1408
1.4,0.11375,-1472
1.4,0.00375,-1448
1.4,0.1225,-1600
1.4,0.08125,-1496
1.4,0.075,-1496
1.4,0.1425,-1544
1.4,0.1925,-1460
1.4,0.06125,-1420
1.4,0.10875,-1488
1.4,0.18125,-1488
1.4,0.12625,-1540
1.4,0.03875,-1292
1.4,0.1575,-1452
1.4,0.03875,-1516
1.4,0.18875,-1512
1.4,0,-1364
1.4,0.1325,-1420
1.4,0.1125,-1420
1.4,0.085,-1372
1.4,0.08,-1408
1.4,0.11875,-1416
1.4,0.0875,-1536
1.4,0.045,-1472
1.4,0.04875,-1420
1.4,0.08,-1528
1.4,0.01375,-1544
1.4,0.23625,-1504
1.4,0.06375,-1320
1.4,0.0875,-1424
1.4,0.08875,-1456
1.4,0.095,-1508
1.4,0.0625,-1520
1.4,0.1425,-1340
1.4,0.195,-1664
1.4,0.09625,-1452
1.4,0.0375,-1500
1.4,0.09875,-1644
1.4,0.02125,-1464
1.4,0.01875,-1468
1.4,0.07625,-1432
1.4,0.09875,-1296
1.4,0.03,-1400
1.4,0.0325,-1440
1.4,0.1025,-1312
1.4,0.1525,-1476
1.4,0.045,-1544
1.4,0.02875,-1428
1.4,0.1025,-1532
1.4,0.04375,-1460
1.4,0.155,-1452
1.4,0.02875,-1532
1.4,0.015,-1560
1.4,0.085,-1408
1.4,0.035,-1532
1.4,0.0925,-1488
1.4,0.155,-1524
1.4,0.1425,-1500
1.4,0.025,-1448
1.4,0.0475,-1440
1.4,0.01875,-1236
1.4,0.02,-1344
1.4,0.16375,-1344
1.4,0.0025,-1572
1.4,0.1425,-1540
1.4,0.1125,-1484
1.4,0.09375,-1356
1.4,0.01375,-1416
1.4,0.075,-1444
1.4,0.07875,-1564
1.4,0.065,-1420
1.4,0.02625,-1432
1.4,0.205,-1440
1.4,0.11375,-1436
1.4,0.165,-1460
1.4,0.06375,-1572
1.4,0.0725,-1492
1.4,0.1375,-1380
1.4,0.0375,-1464
1.4,0.16375,-1516
1.4,0.03125,-1448
1.4,0.0575,-1392
1.4,0.00125,-1472
1.4,0.0875,-1532
1.4,0.215,-1584
1.4,0.1025,-1464
1.4,0.23,-1544
1.4,0.02875,-1548
1.4,0.00625,-1384
1.4,0.0625,-1420
1.4,0.07875,-1448
1.4,0.14,-1496
1.4,0.025,-1472
1.4,0.14,-1592
1.4,0.085,-1396
1.4,0.04,-1416
1.4,0.09,-1356
1.4,0.04875,-1448
1.4,0.0975,-1412
1.4,0.07,-1524
1.4,0.01625,-1452
1.4,0.0275,-1544
1.4,0.03,-1424
1.4,0.08,-1452
1.4,0,-1492
1.4,0.015,-1344
1.4,0.00625,-1308
1.4,0,-1408
1.4,0.035,-1384
1.4,0.0525,-1520
1.4,0.03875,-1540
1.4,0.17375,-1528
1.4,0.17875,-1508
1.4,0.07375,-1568
1.4,0.11875,-1356
1.4,0.0375,-1396
1.4,0.14375,-1576
1.4,0.03625,-1336
1.4,0.06375,-1380
1.4,0.05375,-1468
1.4,0.07,-1488
1.4,0.13,-1532
1.4,0.0275,-1552
1.4,0.09875,-1488
1.4,0.1075,-1412
1.4,0.11125,-1352
1.4,0.11625,-1540
1.4,0.095,-1488
1.4,0.02875,-1476
1.4,0.17125,-1504
1.4,0.16,-1408
1.4,0.1525,-1536
1.4,0.155,-1688
1.4,0.1075,-1348
1.4,0.0325,-1672
1.4,0.1825,-1368
1.4,0.0575,-1360
1.4,0.09625,-1500
1.4,0.005,-1432
1.4,0.06375,-1492
1.4,0.29375,-1652
1.4,0.03375,-1384
1.4,0.22,-1428
1.4,0.08875,-1516
1.4,0.2375,-1484
1.4,0.20875,-1396
1.4,0.00625,-1372
1.4,0.06875,-1244
1.4,0.025,-1572
1.4,0.1125,-1516
1.4,0.10625,-1412
1.4,0.045,-1548
1.4,0.095,-1376
1.4,0.0825,-1480
1.4,0.17625,-1552
1.4,0.00875,-1588
1.4,0.10875,-1460
1.4,0.0475,-1456
1.4,0.035,-1500
1.4,0.1175,-1452
1.4,0.05875,-1360
1.4,0.13125,-1576
1.4,0.0225,-1392
1.4,0.06625,-1260
1.4,0.00375,-1484
1.4,0.03375,-1428
1.4,0.03,-1580
1.4,0.10625,-1532
1.4,0.2,-1500
1.4,0.01875,-1512
1.4,0.12125,-1544
1.4,0.06625,-1396
1.4,0.0225,-1496
1.4,0.1075,-1400
1.4,0.10125,-1424
1.4,0.02,-1420
1.4,0.04875,-1228
1.4,0.09375,-1352
1.4,0.08625,-1380
1.4,0.13875,-1512
1.4,0.0225,-1420
1.4,0.03375,-1468
1.4,0.15625,-1444
1.4,0.0575,-1456
1.4,0.13375,-1412
1.4,0.13375,-1448
1.4,0.0075,-1468
1.4,0.14125,-1436
1.4,0.08125,-1452
1.4,0.06,-1520
1.4,0.2225,-1424
1.4,0.0275,-1448
1.4,0.22625,-1404
1.4,0.03,-1460
1.4,0.01875,-1464
1.4,0.0175,-1472
1.4,0.0975,-1516
1.4,0.195,-1404
1.4,0.05,-1368
1.4,0.195,-1520
1.4,0.14,-1480
1.4,0.12,-1540
1.4,0.01125,-1480
1.4,0.07625,-1576
1.4,0.13375,-1452
1.4,0.1075,-1348
1.4,0.15875,-1556
1.4,0.115,-1664
1.4,0.0625,-1416
1.4,0.05125,-1456
1.4,0.21,-1548
1.4,0.0725,-1596
1.4,0.03,-1532
1.4,0.04875,-1388
1.4,0.10375,-1464
1.4,0.17625,-1380
1.4,0.0975,-1340
1.4,0.10875,-1492
1.4,0.08875,-1416
1.4,0.085,-1456
1.4,0.0775,-1404
1.4,0.0475,-1456
1.4,0.17125,-1464
1.4,0.20875,-1516
1.4,0.07,-1452
1.4,0.1175,-1556
1.4,0.305,-1504
1.4,0.08625,-1512
1.4,0.01,-1340
1.4,0.0275,-1528
1.4,0.04125,-1340
1.4,0.05875,-1300
1.4,0.0025,-1388
1.4,0.03375,-1400
1.4,0.01625,-1316
1.4,0.05625,-1316
1.4,0.0825,-1504
1.4,0.01875,-1424
1.4,0.05,-1504
1.4,0.1425,-1472
1.4,0.07375,-1280
1.4,0.1275,-1544
1.4,0.02875,-1396
1.4,0.04625,-1452
1.4,0.225,-1420
1.4,0.115,-1432
1.4,0.06,-1528
1.4,0.0325,-1336
1.4,0.0475,-1408
1.4,0.0575,-1432
1.4,0.0075,-1424
1.4,0.18,-1508
1.4,0.12875,-1592
1.4,0.2975,-1432
1.4,0.0825,-1332
1.4,0.035,-1340
1.4,0.12875,-1556
1.4,0.02375,-1448
1.4,0.08625,-1556
1.4,0.1625,-1396
1.4,0.10375,-1516
1.4,0.00625,-1540
1.4,0.0025,-1348
1.4,0.22625,-1472
1.4,0.09625,-1508
1.4,0.16375,-1396
1.4,0.09875,-1404
1.4,0.03,-1484
1.4,0.2125,-1416
1.4,0.24,-1536
1.4,0.23875,-1488
1.4,0.165,-1516
1.4,0.095,-1372
1.4,0.13,-1416
1.4,0.16625,-1516
1.4,0.10125,-1480
1.4,0.06625,-1500
1.4,0.03,-1444
1.4,0.0125,-1132
1.4,0.09625,-1492
1.4,0.16,-1552
1.4,0.16875,-1516
1.4,0.0625,-1524
1.4,0.025,-1416
1.4,0.22125,-1504
1.4,0.06125,-1400
1.4,0.0875,-1564
1.4,0.06125,-1484
1.4,0.195,-1396
1.4,0.00625,-1416
1.4,0.02625,-1384
1.4,0.02375,-1416
1.4,0.07625,-1496
1.4,0.25,-1452
1.4,0.055,-1428
1.4,0.025,-1372
1.4,0.23625,-1444
1.4,0.0675,-1588
1.4,0.19875,-1440
1.4,0.06125,-1680
1.4,0.0625,-1484
1.4,0.12,-1464
1.4,0.03375,-1388
1.4,0.0375,-1380
1.4,0.045,-1452
1.4,0.1975,-1464
1.4,0.19125,-1580
1.4,0.10125,-1432
1.4,0.11625,-1348
1.4,0.13875,-1324
1.4,0.14875,-1484
1.4,0.1325,-1532
1.4,0.02625,-1532
1.4,0.08375,-1540
1.4,0.105,-1484
1.4,0.09125,-1508
1.4,0.00875,-1368
1.4,0.08875,-1548
1.4,0.21375,-1392
1.4,0.22,-1428
1.4,0.16,-1540
1.4,0.17375,-1388
1.4,0.10125,-1496
1.4,0.015,-1512
1.4,0.06125,-1360
1.4,0.10125,-1340
1.4,0.1375,-1400
1.4,0.015,-1416
1.4,0.05625,-1552
1.4,0.07875,-1548
1.4,0.095,-1488
1.4,0.13125,-1700
1.4,0.05125,-1412
1.4,0.165,-1512
1.4,0.0925,-1508
1.4,0.11375,-1556
1.4,0.09,-1312
1.4,0.03375,-1500
1.4,0.1625,-1492
1.4,0.01375,-1536
1.4,0.08875,-1512
1.4,0.125,-1284
1.4,0.03875,-1568
1.4,0.065,-1544
1.4,0.09,-1456
1.4,0.14,-1568
1.4,0.04,-1532
1.4,0.11,-1552
1.4,0.05125,-1468
1.4,0.16625,-1480
1.4,0.01,-1420
1.4,0.06875,-1512
1.4,0.02625,-1436
1.4,0.065,-1528
1.4,0.03125,-1368
1.4,0.10375,-1464
1.4,0.0275,-1464
1.4,0.0625,-1324
1.4,0.02625,-1376
1.4,0.07,-1344
1.4,0.0525,-1400
1.4,0.1225,-1512
1.4,0.04375,-1536
1.4,0.03375,-1424
1.4,0.05625,-1412
1.4,0.14125,-1460
1.4,0.0075,-1520
1.4,0.0075,-1548
1.4,0.0775,-1404
1.4,0.0125,-1420
1.4,0.07,-1508
1.4,0.145,-1396
1.4,0.05625,-1468
1.4,0.0225,-1440
1.4,0.05625,-1596
1.4,0.08875,-1412
1.4,0.025,-1452
1.4,0.0375,-1500
1.4,0.0425,-1488
1.4,0.02,-1492
1.4,0.12125,-1660
1.4,0.09,-1368
1.4,0.0225,-1432
1.4,0.14625,-1440
1.4,0.0475,-1444
1.4,0.06125,-1408
1.4,0.075,-1464
1.4,0.07125,-1428
1.4,0.0475,-1464
1.4,0.15,-1420
1.4,0.1025,-1472
1.4,0.10375,-1460
1.4,0.04375,-1484
1.4,0.1475,-1308
1.4,0.03625,-1316
1.4,0.12,-1364
1.4,0.05625,-1508
1.4,0.05375,-1304
1.4,0.12375,-1440
1.4,0.045,-1332
1.4,0.0375,-1380
1.4,0.09375,-1444
1.4,0.13625,-1472
1.4,0.06875,-1500
1.4,0.1175,-1496
1.4,0.08375,-1476
1.4,0.03875,-1320
1.4,0.0675,-1384
1.4,0.01375,-1500
1.4,0.03625,-1532
1.4,0.1025,-1368
1.4,0.06375,-1600
1.4,0.0025,-1492
1.4,0.07125,-1428
1.4,0.08625,-1504
1.4,0.16375,-1464
1.4,0.0925,-1404
1.4,0.05125,-1488
1.4,0.0125,-1376
1.4,0.11625,-1368
1.4,0.21625,-1380
1.4,0.1025,-1304
1.4,0.125,-1372
1.4,0.1475,-1368
1.4,0.0225,-1372
1.4,0.04375,-1436
1.4,0.01625,-1432
1.4,0.12625,-1480
1.4,0.16125,-1604
1.4,0.03,-1484
1.4,0.0275,-1508
1.4,0.06,-1340
1.4,0.06375,-1368
1.4,0.0425,-1416
1.4,0.0925,-1552
1.4,0.14,-1504
1.4,0.11125,-1492
1.4,0.1275,-1616
1.4,0.21375,-1444
1.4,0.01,-1600
1.4,0.2725,-1584
1.4,0.005,-1348
1.4,0.065,-1532
1.4,0.0225,-1388
1.4,0.1125,-1476
1.4,0.10375,-1584
1.4,0.0225,-1348
1.4,0.18375,-1536
1.4,0.04625,-1452
1.4,0.0225,-1308
1.4,0.28,-1452
1.4,0.075,-1404
1.4,0.1525,-1536
1.4,0.225,-1568
1.4,0.27625,-1732
1.4,0.0275,-1456
1.4,0.03,-1516
1.4,0.0225,-1584
1.4,0.05875,-1348
1.4,0.1425,-1388
1.4,0.20875,-1624
1.4,0.15125,-1568
1.4,0.1,-1484
1.4,0.06875,-1316
1.4,0.02375,-1528
1.4,0.02625,-1680
1.4,0.0525,-1556
1.4,0.11,-1600
1.4,0.12375,-1556
1.4,0.05875,-1528
1.4,0.10375,-1592
1.4,0.03875,-1416
1.4,0.045,-1348
1.4,0.18875,-1492
1.4,0.17875,-1480
1.4,0.1675,-1348
1.4,0.03875,-1476
1.4,0.075,-1368
1.4,0.055,-1300
1.4,0.035,-1548
1.4,0.00125,-1468
1.4,0.07625,-1632
1.4,0.0175,-1444
1.4,0.1525,-1416
1.4,0.0725,-1352
1.4,0.0325,-1420
1.4,0.06375,-1556
1.4,0.1275,-1520
1.4,0.0225,-1468
1.4,0.075,-1352
1.4,0.19,-1416
1.4,0.01,-1412
1.4,0.01375,-1508
1.4,0,-1436
1.4,0.0575,-1524
1.4,0.01,-1340
1.4,0.12625,-1460
1.4,0.03875,-1672
1.4,0.1875,-1500
1.4,0.06625,-1440
1.4,0.0625,-1468
1.4,0.045,-1328
1.4,0.105,-1636
1.4,0.1475,-1472
1.4,0.11875,-1524
1.4,0.11,-1496
1.4,0.08,-1328
1.4,0.0125,-1320
1.4,0.06625,-1524
1.4,0.125,-1440
1.4,0.1225,-1468
1.4,0.1925,-1328
1.4,0.01125,-1424
1.4,0.07375,-1460
1.4,0.08875,-1380
1.4,0.04,-1508
1.4,0.06375,-1388
1.4,0.065,-1536
1.4,0.0825,-1444
1.4,0.12375,-1424
1.4,0.0225,-1568
1.4,0.02875,-1476
1.4,0.0075,-1424
1.4,0.17,-1304
1.4,0.13375,-1440
1.4,0.01,-1464
1.4,0.145,-1488
1.4,0.0025,-1392
1.4,0.11125,-1468
1.4,0.01,-1408
1.4,0.0225,-1500
1.4,0.06625,-1460
1.4,0.01375,-1384
1.4,0.2775,-1608
1.4,0.0175,-1424
1.4,0.14875,-1376
1.4,0.045,-1440
1.4,0.0775,-1376
1.4,0.0975,-1356
1.4,0.06125,-1480
1.4,0.09,-1512
1.4,0.1225,-1544
1.4,0.06625,-1548
1.4,0.005,-1496
1.4,0.0325,-1292
